dTect V4.6
Well Log
Fri 04 Oct 2013, 15:51:23
!
Name: P_Impedance_rel
Unit of Measure: Kg/m2s
Header info: No
Storage type: Ascii
!
96.4567	505307
96.9488	155.729
97.4409	155.729
97.9331	155.729
98.4252	155.729
98.9173	155.729
99.4095	155.729
99.9016	155.729
100.394	155.729
100.886	155.729
101.378	155.729
101.87	155.729
102.362	155.729
102.854	155.729
103.346	155.729
103.839	155.729
104.331	155.729
104.823	155.729
105.315	155.729
105.807	156.821
106.299	187.662
106.791	418.532
107.283	603.49
107.776	603.49
108.268	603.49
108.76	603.49
109.252	603.49
109.744	603.49
110.236	603.49
110.728	603.49
111.22	603.49
111.713	603.49
112.205	603.49
112.697	603.49
113.189	603.49
113.681	603.49
114.173	603.49
114.665	603.49
115.157	603.49
115.65	603.49
116.142	603.49
116.634	603.49
117.126	603.49
117.618	603.49
118.11	603.683
118.602	610.641
119.094	691.653
119.587	992.348
120.079	992.348
120.571	992.348
121.063	992.348
121.555	992.348
122.047	992.348
122.539	992.348
123.031	992.348
123.524	992.348
124.016	992.348
124.508	992.348
125	992.348
125.492	992.348
125.984	992.348
126.476	992.348
126.969	992.348
127.461	992.348
127.953	992.348
128.445	992.348
128.937	992.348
129.429	992.348
129.921	992.348
130.413	992.348
130.906	992.383
131.398	994.013
131.89	1010.5
132.382	1016.52
132.874	1016.52
133.366	1016.52
133.858	1016.52
134.35	1016.52
134.843	1016.52
135.335	1016.52
135.827	1016.52
136.319	1016.52
136.811	1016.52
137.303	1016.52
137.795	1016.52
138.287	1016.52
138.78	1016.52
139.272	1016.52
139.764	1016.52
140.256	1016.52
140.748	1016.52
141.24	1016.52
141.732	1016.52
142.224	1016.52
142.717	1016.52
143.209	1016.52
143.701	1013.01
144.193	956.627
144.685	854.605
145.177	854.207
145.669	854.207
146.161	854.207
146.654	854.207
147.146	854.207
147.638	854.207
148.13	854.207
148.622	854.207
149.114	854.207
149.606	854.207
150.098	854.207
150.591	854.207
151.083	854.207
151.575	854.207
152.067	854.207
152.559	854.207
153.051	854.207
153.543	854.207
154.035	854.207
154.528	854.207
155.02	854.207
155.512	854.207
156.004	854.207
156.496	838.568
156.988	617.68
157.48	589.676
157.972	588.652
158.465	588.652
158.957	588.652
159.449	588.652
159.941	588.652
160.433	588.652
160.925	588.652
161.417	588.652
161.909	588.652
162.402	588.652
162.894	588.652
163.386	588.652
163.878	588.652
164.37	588.652
164.862	588.652
165.354	588.652
165.846	588.652
166.339	588.652
166.831	588.652
167.323	588.652
167.815	588.652
168.307	588.652
168.799	574.674
169.291	364.95
169.783	166.57
170.276	147.104
170.768	147.104
171.26	147.104
171.752	147.104
172.244	147.104
172.736	147.104
173.228	147.104
173.72	147.104
174.213	147.104
174.705	147.104
175.197	147.104
175.689	147.104
176.181	147.104
176.673	147.104
177.165	147.104
177.657	147.104
178.15	147.104
178.642	147.104
179.134	147.104
179.626	147.104
180.118	147.104
180.61	147.104
181.102	143.788
181.594	73.6981
182.087	-262.066
182.579	-323.019
183.071	-323.019
183.563	-323.019
184.055	-323.019
184.547	-323.019
185.039	-323.019
185.532	-323.019
186.024	-323.019
186.516	-323.019
187.008	-323.019
187.5	-323.019
187.992	-323.019
188.484	-323.019
188.976	-323.019
189.469	-323.019
189.961	-323.019
190.453	-323.019
190.945	-323.019
191.437	-323.019
191.929	-323.019
192.421	-323.019
192.913	-323.019
193.406	-323.019
193.898	-334.311
194.39	-499.842
194.882	-605.798
195.374	-624.154
195.866	-624.154
196.358	-624.154
196.85	-624.154
197.343	-624.154
197.835	-624.154
198.327	-624.154
198.819	-624.154
199.311	-624.154
199.803	-624.154
200.295	-624.154
200.787	-624.154
201.28	-624.154
201.772	-624.154
202.264	-624.154
202.756	-624.154
203.248	-624.154
203.74	-624.154
204.232	-624.154
204.724	-624.154
205.217	-624.154
205.709	-624.154
206.201	-627.478
206.693	-682.272
207.185	-800.999
207.677	-843.822
208.169	-843.822
208.661	-843.822
209.154	-843.822
209.646	-843.822
210.138	-843.822
210.63	-843.822
211.122	-843.822
211.614	-843.822
212.106	-843.822
212.598	-843.822
213.091	-843.822
213.583	-843.822
214.075	-843.822
214.567	-843.822
215.059	-843.822
215.551	-843.822
216.043	-843.822
216.535	-843.822
217.028	-843.822
217.52	-843.822
218.012	-843.822
218.504	-843.822
218.996	-852.997
219.488	-987.896
219.98	-1079.21
220.472	-1087.23
220.965	-1087.23
221.457	-1087.23
221.949	-1087.23
222.441	-1087.23
222.933	-1087.23
223.425	-1087.23
223.917	-1087.23
224.409	-1087.23
224.902	-1087.23
225.394	-1087.23
225.886	-1087.23
226.378	-1087.23
226.87	-1087.23
227.362	-1087.23
227.854	-1087.23
228.346	-1087.23
228.839	-1087.23
229.331	-1087.23
229.823	-1087.23
230.315	-1087.23
230.807	-1087.23
231.299	-1089.33
231.791	-1122.61
232.283	-1177.96
232.776	-1203.85
233.268	-1203.85
233.76	-1203.85
234.252	-1203.85
234.744	-1203.85
235.236	-1203.85
235.728	-1203.85
236.22	-1203.85
236.713	-1203.85
237.205	-1203.85
237.697	-1203.85
238.189	-1203.85
238.681	-1203.85
239.173	-1203.85
239.665	-1203.85
240.158	-1203.85
240.65	-1203.85
241.142	-1203.85
241.634	-1203.85
242.126	-1203.85
242.618	-1203.85
243.11	-1203.85
243.602	-1203.47
244.094	-1195.07
244.587	-1147.65
245.079	-1093.61
245.571	-1093.61
246.063	-1093.61
246.555	-1093.61
247.047	-1093.61
247.539	-1093.61
248.032	-1093.61
248.524	-1093.61
249.016	-1093.61
249.508	-1093.61
250	-1093.61
250.492	-1093.61
250.984	-1093.61
251.476	-1093.61
251.969	-1093.61
252.461	-1093.61
252.953	-1093.61
253.445	-1093.61
253.937	-1093.61
254.429	-1093.61
254.921	-1093.61
255.413	-1093.61
255.906	-1093.61
256.398	-1091.02
256.89	-1047.79
257.382	-947.482
257.874	-913.011
258.366	-913.011
258.858	-913.011
259.35	-913.011
259.843	-913.011
260.335	-913.011
260.827	-913.011
261.319	-913.011
261.811	-913.011
262.303	-913.011
262.795	-913.011
263.287	-913.011
263.78	-913.011
264.272	-913.011
264.764	-913.011
265.256	-913.011
265.748	-913.011
266.24	-913.011
266.732	-913.011
267.224	-913.011
267.717	-913.011
268.209	-913.011
268.701	-912.491
269.193	-901.786
269.685	-848.513
270.177	-774.987
270.669	-774.987
271.161	-774.987
271.654	-774.987
272.146	-774.987
272.638	-774.987
273.13	-774.987
273.622	-774.987
274.114	-774.987
274.606	-774.987
275.098	-774.987
275.591	-774.987
276.083	-774.987
276.575	-774.987
277.067	-774.987
277.559	-774.987
278.051	-774.987
278.543	-774.987
279.035	-774.987
279.528	-774.987
280.02	-774.987
280.512	-774.987
281.004	-774.987
281.496	-774.523
281.988	-757.505
282.48	-609.082
282.972	-594.446
283.465	-594.446
283.957	-594.446
284.449	-594.446
284.941	-594.446
285.433	-594.446
285.925	-594.446
286.417	-594.446
286.909	-594.446
287.402	-594.446
287.894	-594.446
288.386	-594.446
288.878	-594.446
289.37	-594.446
289.862	-594.446
290.354	-594.446
290.846	-594.446
291.339	-594.446
291.831	-594.446
292.323	-594.446
292.815	-594.446
293.307	-594.446
293.799	-594.446
294.291	-586.294
294.783	-463.474
295.276	-340.481
295.768	-327.958
296.26	-327.958
296.752	-327.958
297.244	-327.958
297.736	-327.958
298.228	-327.958
298.72	-327.958
299.213	-327.958
299.705	-327.958
300.197	-327.958
300.689	-327.958
301.181	-327.958
301.673	-327.958
302.165	-327.958
302.657	-327.958
303.15	-327.958
303.642	-327.958
304.134	-327.958
304.626	-327.958
305.118	-327.958
305.61	-327.958
306.102	-327.958
306.595	-326.573
307.087	-295.498
307.579	-128.259
308.071	-74.7918
308.563	-74.7918
309.055	-74.7918
309.547	-74.7918
310.039	-74.7918
310.531	-74.7918
311.024	-74.7918
311.516	-74.7918
312.008	-74.7918
312.5	-74.7918
312.992	-74.7918
313.484	-74.7918
313.976	-74.7918
314.469	-74.7918
314.961	-74.7918
315.453	-74.7918
315.945	-74.7918
316.437	-74.7918
316.929	-74.7918
317.421	-74.7918
317.913	-74.7918
318.406	-74.7918
318.898	-74.7918
319.39	-70.2186
319.882	-1.29583
320.374	69.4966
320.866	88.6152
321.358	88.6152
321.85	88.6152
322.343	88.6152
322.835	88.6152
323.327	88.6152
323.819	88.6152
324.311	88.6152
324.803	88.6152
325.295	88.6152
325.787	88.6152
326.28	88.6152
326.772	88.6152
327.264	88.6152
327.756	88.6152
328.248	88.6152
328.74	88.6152
329.232	88.6152
329.724	88.6152
330.217	88.6152
330.709	88.6152
331.201	88.6152
331.693	89.5162
332.185	105.295
332.677	152.54
333.169	191.822
333.661	191.822
334.154	191.822
334.646	191.822
335.138	191.822
335.63	191.822
336.122	191.822
336.614	191.822
337.106	191.822
337.598	191.822
338.091	191.822
338.583	191.822
339.075	191.822
339.567	191.822
340.059	191.822
340.551	191.822
341.043	191.822
341.535	191.822
342.028	191.822
342.52	191.822
343.012	191.822
343.504	191.822
343.996	191.822
344.488	193.47
344.98	221.663
345.472	294.169
345.965	302.48
346.457	302.48
346.949	302.48
347.441	302.48
347.933	302.48
348.425	302.48
348.917	302.48
349.409	302.48
349.902	302.48
350.394	302.48
350.886	302.48
351.378	302.48
351.87	302.48
352.362	302.48
352.854	302.48
353.346	302.48
353.839	302.48
354.331	302.48
354.823	302.48
355.315	302.48
355.807	302.48
356.299	302.48
356.791	302.751
357.283	311.002
357.776	377.65
358.268	437.927
358.76	437.927
359.252	437.927
359.744	437.927
360.236	437.927
360.728	437.927
361.22	437.927
361.713	437.927
362.205	437.927
362.697	437.927
363.189	437.927
363.681	437.927
364.173	437.927
364.665	437.927
365.158	437.927
365.65	437.927
366.142	437.927
366.634	437.927
367.126	437.927
367.618	437.927
368.11	437.927
368.602	437.927
369.095	437.927
369.587	438.427
370.079	450.354
370.571	520.075
371.063	531.041
371.555	531.041
372.047	531.041
372.539	531.041
373.032	531.041
373.524	531.041
374.016	531.041
374.508	531.041
375	531.041
375.492	531.041
375.984	531.041
376.476	531.041
376.969	531.041
377.461	531.041
377.953	531.041
378.445	531.041
378.937	531.041
379.429	531.041
379.921	531.041
380.413	531.041
380.906	531.041
381.398	531.041
381.89	531.041
382.382	531.33
382.874	535.646
383.366	539.554
383.858	540.529
384.35	540.529
384.843	540.529
385.335	540.529
385.827	540.529
386.319	540.529
386.811	540.529
387.303	540.529
387.795	540.529
388.287	540.529
388.78	540.529
389.272	540.529
389.764	540.529
390.256	540.529
390.748	540.529
391.24	540.529
391.732	540.529
392.224	540.529
392.717	540.529
393.209	540.529
393.701	540.529
394.193	540.529
394.685	540.777
395.177	545.139
395.669	558.367
396.161	569.058
396.654	569.058
397.146	569.058
397.638	569.058
398.13	569.058
398.622	569.058
399.114	569.058
399.606	569.058
400.098	569.058
400.591	569.058
401.083	569.058
401.575	569.058
402.067	569.058
402.559	569.058
403.051	569.058
403.543	569.058
404.035	569.058
404.528	569.058
405.02	569.058
405.512	569.058
406.004	569.058
406.496	569.058
406.988	569.058
407.48	570.817
407.972	601.731
408.465	690.66
408.957	702.559
409.449	702.559
409.941	702.559
410.433	702.559
410.925	702.559
411.417	702.559
411.909	702.559
412.402	702.559
412.894	702.559
413.386	702.559
413.878	702.559
414.37	702.559
414.862	702.559
415.354	702.559
415.846	702.559
416.339	702.559
416.831	702.559
417.323	702.559
417.815	702.559
418.307	702.559
418.799	702.559
419.291	702.559
419.783	702.559
420.276	706.189
420.768	760.966
421.26	817.162
421.752	817.817
422.244	817.817
422.736	817.817
423.228	817.817
423.721	817.817
424.213	817.817
424.705	817.817
425.197	817.817
425.689	817.817
426.181	817.817
426.673	817.817
427.165	817.817
427.658	817.817
428.15	817.817
428.642	817.817
429.134	817.817
429.626	817.817
430.118	817.817
430.61	817.817
431.102	817.817
431.595	817.817
432.087	817.817
432.579	817.732
433.071	815.499
433.563	800.597
434.055	795.698
434.547	795.698
435.039	795.698
435.531	795.698
436.024	795.698
436.516	795.698
437.008	795.698
437.5	795.698
437.992	795.698
438.484	795.698
438.976	795.698
439.469	795.698
439.961	795.698
440.453	795.698
440.945	795.698
441.437	795.698
441.929	795.698
442.421	795.698
442.913	795.698
443.406	795.698
443.898	795.698
444.39	795.698
444.882	795.698
445.374	794.868
445.866	782.027
446.358	764.565
446.85	758.675
447.343	758.675
447.835	758.675
448.327	758.675
448.819	758.675
449.311	758.675
449.803	758.675
450.295	758.675
450.787	758.675
451.28	758.675
451.772	758.675
452.264	758.675
452.756	758.675
453.248	758.675
453.74	758.675
454.232	758.675
454.724	758.675
455.217	758.675
455.709	758.675
456.201	758.675
456.693	758.675
457.185	758.675
457.677	758.892
458.169	763.157
458.661	782.179
459.154	808.283
459.646	808.283
460.138	808.283
460.63	808.283
461.122	808.283
461.614	808.283
462.106	808.283
462.598	808.283
463.091	808.283
463.583	808.283
464.075	808.283
464.567	808.283
465.059	808.283
465.551	808.283
466.043	808.283
466.535	808.283
467.028	808.283
467.52	808.283
468.012	808.283
468.504	808.283
468.996	808.283
469.488	808.283
469.98	808.283
470.472	808.283
470.965	806.409
471.457	779.831
471.949	774.736
472.441	774.578
472.933	774.578
473.425	774.578
473.917	774.578
474.409	774.578
474.902	774.578
475.394	774.578
475.886	774.578
476.378	774.578
476.87	774.578
477.362	774.578
477.854	774.578
478.346	774.578
478.839	774.578
479.331	774.578
479.823	774.578
480.315	774.578
480.807	774.578
481.299	774.578
481.791	774.578
482.283	774.578
482.776	774.578
483.268	769.318
483.76	687.324
484.252	566.545
484.744	526.654
485.236	526.654
485.728	526.654
486.221	526.654
486.713	526.654
487.205	526.654
487.697	526.654
488.189	526.654
488.681	526.654
489.173	526.654
489.665	526.654
490.158	526.654
490.65	526.654
491.142	526.654
491.634	526.654
492.126	526.654
492.618	526.654
493.11	526.654
493.602	526.654
494.095	526.654
494.587	526.654
495.079	526.654
495.571	526.157
496.063	511.043
496.555	385.402
497.047	224.01
497.539	224.01
498.032	224.01
498.524	224.01
499.016	224.01
499.508	224.01
500	224.01
500.492	224.01
500.984	224.01
501.476	224.01
501.969	224.01
502.461	224.01
502.953	224.01
503.445	224.01
503.937	224.01
504.429	224.01
504.921	224.01
505.413	224.01
505.906	224.01
506.398	224.01
506.89	224.01
507.382	224.01
507.874	224.01
508.366	222.926
508.858	198.158
509.35	58.8174
509.843	-10.7615
510.335	-10.7615
510.827	-10.7615
511.319	-10.7615
511.811	-10.7615
512.303	-10.7615
512.795	-10.7615
513.287	-10.7615
513.78	-10.7615
514.272	-10.7615
514.764	-10.7615
515.256	-10.7615
515.748	-10.7615
516.24	-10.7615
516.732	-10.7615
517.224	-10.7615
517.717	-10.7615
518.209	-10.7615
518.701	-10.7615
519.193	-10.7615
519.685	-10.7615
520.177	-10.7615
520.669	-10.7615
521.161	-14.7644
521.654	-83.9868
522.146	-272.565
522.638	-316.943
523.13	-316.943
523.622	-316.943
524.114	-316.943
524.606	-316.943
525.098	-316.943
525.591	-316.943
526.083	-316.943
526.575	-316.943
527.067	-316.943
527.559	-316.943
528.051	-316.943
528.543	-316.943
529.035	-316.943
529.528	-316.943
530.02	-316.943
530.512	-316.943
531.004	-316.943
531.496	-316.943
531.988	-316.943
532.48	-316.943
532.972	-316.943
533.465	-316.943
533.957	-329.278
534.449	-517.291
534.941	-732.906
535.433	-770.229
535.925	-770.229
536.417	-770.229
536.909	-770.229
537.402	-770.229
537.894	-770.229
538.386	-770.229
538.878	-770.229
539.37	-770.229
539.862	-770.229
540.354	-770.229
540.846	-770.229
541.339	-770.229
541.831	-770.229
542.323	-770.229
542.815	-770.229
543.307	-770.229
543.799	-770.229
544.291	-770.229
544.784	-770.229
545.276	-770.229
545.768	-770.229
546.26	-772.205
546.752	-812.487
547.244	-1002.22
547.736	-1190.68
548.228	-1190.68
548.72	-1190.68
549.213	-1190.68
549.705	-1190.68
550.197	-1190.68
550.689	-1190.68
551.181	-1190.68
551.673	-1190.68
552.165	-1190.68
552.658	-1190.68
553.15	-1190.68
553.642	-1190.68
554.134	-1190.68
554.626	-1190.68
555.118	-1190.68
555.61	-1190.68
556.102	-1190.68
556.595	-1190.68
557.087	-1190.68
557.579	-1190.68
558.071	-1190.68
558.563	-1190.68
559.055	-1191.09
559.547	-1210.17
560.039	-1400.8
560.531	-1441.31
561.024	-1441.31
561.516	-1441.31
562.008	-1441.31
562.5	-1441.31
562.992	-1441.31
563.484	-1441.31
563.976	-1441.31
564.469	-1441.31
564.961	-1441.31
565.453	-1441.31
565.945	-1441.31
566.437	-1441.31
566.929	-1441.31
567.421	-1441.31
567.913	-1441.31
568.406	-1441.31
568.898	-1441.31
569.39	-1441.31
569.882	-1441.31
570.374	-1441.31
570.866	-1441.31
571.358	-1441.31
571.85	-1444.48
572.343	-1494.03
572.835	-1568.82
573.327	-1598.18
573.819	-1598.18
574.311	-1598.18
574.803	-1598.18
575.295	-1598.18
575.787	-1598.18
576.28	-1598.18
576.772	-1598.18
577.264	-1598.18
577.756	-1598.18
578.248	-1598.18
578.74	-1598.18
579.232	-1598.18
579.724	-1598.18
580.217	-1598.18
580.709	-1598.18
581.201	-1598.18
581.693	-1598.18
582.185	-1598.18
582.677	-1598.18
583.169	-1598.18
583.661	-1598.18
584.154	-1598.41
584.646	-1603.92
585.138	-1640.8
585.63	-1716.45
586.122	-1716.45
586.614	-1716.45
587.106	-1716.45
587.598	-1716.45
588.091	-1716.45
588.583	-1716.45
589.075	-1716.45
589.567	-1716.45
590.059	-1716.45
590.551	-1716.45
591.043	-1716.45
591.535	-1716.45
592.028	-1716.45
592.52	-1716.45
593.012	-1716.45
593.504	-1716.45
593.996	-1716.45
594.488	-1716.45
594.98	-1716.45
595.472	-1716.45
595.965	-1716.45
596.457	-1716.45
596.949	-1716.45
597.441	-1715.49
597.933	-1701.51
598.425	-1694.34
598.917	-1693.32
599.409	-1693.32
599.902	-1693.32
600.394	-1693.32
600.886	-1693.32
601.378	-1693.32
601.87	-1693.32
602.362	-1693.32
602.854	-1693.32
603.346	-1693.32
603.839	-1693.32
604.331	-1693.32
604.823	-1693.32
605.315	-1693.32
605.807	-1693.32
606.299	-1693.32
606.791	-1693.32
607.284	-1693.32
607.776	-1693.32
608.268	-1693.32
608.76	-1693.32
609.252	-1693.32
609.744	-1690.5
610.236	-1643
610.728	-1523.03
611.22	-1435.33
611.713	-1435.33
612.205	-1435.33
612.697	-1435.33
613.189	-1435.33
613.681	-1435.33
614.173	-1435.33
614.665	-1435.33
615.157	-1435.33
615.65	-1435.33
616.142	-1435.33
616.634	-1435.33
617.126	-1435.33
617.618	-1435.33
618.11	-1435.33
618.602	-1435.33
619.095	-1435.33
619.587	-1435.33
620.079	-1435.33
620.571	-1435.33
621.063	-1435.33
621.555	-1435.33
622.047	-1435.32
622.539	-1434.8
623.032	-1399.72
623.524	-994.503
624.016	-993.429
624.508	-993.429
625	-993.429
625.492	-993.429
625.984	-993.429
626.476	-993.429
626.969	-993.429
627.461	-993.429
627.953	-993.429
628.445	-993.429
628.937	-993.429
629.429	-993.429
629.921	-993.429
630.413	-993.429
630.906	-993.429
631.398	-993.429
631.89	-993.429
632.382	-993.429
632.874	-993.429
633.366	-993.429
633.858	-993.429
634.35	-993.429
634.843	-993.429
635.335	-980.784
635.827	-788.052
636.319	-560.356
636.811	-486.043
637.303	-486.043
637.795	-486.043
638.287	-486.043
638.78	-486.043
639.272	-486.043
639.764	-486.043
640.256	-486.043
640.748	-486.043
641.24	-486.043
641.732	-486.043
642.224	-486.043
642.717	-486.043
643.209	-486.043
643.701	-486.043
644.193	-486.043
644.685	-486.043
645.177	-486.043
645.669	-486.043
646.161	-486.043
646.654	-486.043
647.146	-486.043
647.638	-484.468
648.13	-451.075
648.622	-269.715
649.114	43.383
649.606	43.383
650.098	43.383
650.591	43.383
651.083	43.383
651.575	43.383
652.067	43.383
652.559	43.383
653.051	43.383
653.543	43.383
654.035	43.383
654.528	43.383
655.02	43.383
655.512	43.383
656.004	43.383
656.496	43.383
656.988	43.383
657.48	43.383
657.972	43.383
658.465	43.383
658.957	43.383
659.449	43.383
659.941	43.383
660.433	43.383
660.925	68.8642
661.417	437.92
661.909	617.36
662.402	641.279
662.894	641.279
663.386	641.279
663.878	641.279
664.37	641.279
664.862	641.279
665.354	641.279
665.846	641.279
666.339	641.279
666.831	641.279
667.323	641.279
667.815	641.279
668.307	641.279
668.799	641.279
669.291	641.279
669.784	641.279
670.276	641.279
670.768	641.279
671.26	641.279
671.752	641.279
672.244	641.279
672.736	641.279
673.228	647.829
673.721	759.503
674.213	1056.58
674.705	1285.92
675.197	1285.92
675.689	1285.92
676.181	1285.92
676.673	1285.92
677.165	1285.92
677.657	1285.92
678.15	1285.92
678.642	1285.92
679.134	1285.92
679.626	1285.92
680.118	1285.92
680.61	1285.92
681.102	1285.92
681.595	1285.92
682.087	1285.92
682.579	1285.92
683.071	1285.92
683.563	1285.92
684.055	1285.92
684.547	1285.92
685.039	1285.92
685.532	1285.92
686.024	1285.92
686.516	1318.26
687.008	1772.65
687.5	1801.83
687.992	1802.52
688.484	1802.52
688.976	1802.52
689.469	1802.52
689.961	1802.52
690.453	1802.52
690.945	1802.52
691.437	1802.52
691.929	1802.52
692.421	1802.52
692.913	1802.52
693.406	1802.52
693.898	1802.52
694.39	1802.52
694.882	1802.52
695.374	1802.52
695.866	1802.52
696.358	1802.52
696.85	1802.52
697.343	1802.52
697.835	1802.52
698.327	1802.52
698.819	1807.9
699.311	1891.76
699.803	2016.8
700.295	2068.89
700.787	2068.89
701.28	2068.89
701.772	2068.89
702.264	2068.89
702.756	2068.89
703.248	2068.89
703.74	2068.89
704.232	2068.89
704.724	2068.89
705.217	2068.89
705.709	2068.89
706.201	2068.89
706.693	2068.89
707.185	2068.89
707.677	2068.89
708.169	2068.89
708.661	2068.89
709.154	2068.89
709.646	2068.89
710.138	2068.89
710.63	2068.89
711.122	2069
711.614	2072.06
712.106	2099.43
712.598	2179.23
713.091	2179.23
713.583	2179.23
714.075	2179.23
714.567	2179.23
715.059	2179.23
715.551	2179.23
716.043	2179.23
716.535	2179.23
717.028	2179.23
717.52	2179.23
718.012	2179.23
718.504	2179.23
718.996	2179.23
719.488	2179.23
719.98	2179.23
720.472	2179.23
720.965	2179.23
721.457	2179.23
721.949	2179.23
722.441	2179.23
722.933	2179.23
723.425	2179.23
723.917	2179.23
724.409	2180.19
724.902	2194.54
725.394	2206.87
725.886	2209.64
726.378	2209.64
726.87	2209.64
727.362	2209.64
727.854	2209.64
728.346	2209.64
728.839	2209.64
729.331	2209.64
729.823	2209.64
730.315	2209.64
730.807	2209.64
731.299	2209.64
731.791	2209.64
732.284	2209.64
732.776	2209.64
733.268	2209.64
733.76	2209.64
734.252	2209.64
734.744	2209.64
735.236	2209.64
735.728	2209.64
736.221	2209.64
736.713	2208.87
737.205	2193.12
737.697	2115.36
738.189	2014.29
738.681	2014.29
739.173	2014.29
739.665	2014.29
740.158	2014.29
740.65	2014.29
741.142	2014.29
741.634	2014.29
742.126	2014.29
742.618	2014.29
743.11	2014.29
743.602	2014.29
744.094	2014.29
744.587	2014.29
745.079	2014.29
745.571	2014.29
746.063	2014.29
746.555	2014.29
747.047	2014.29
747.539	2014.29
748.032	2014.29
748.524	2014.29
749.016	2014.29
749.508	2014.29
750	1992.11
750.492	1670.63
750.984	1513.03
751.476	1500.92
751.969	1500.92
752.461	1500.92
752.953	1500.92
753.445	1500.92
753.937	1500.92
754.429	1500.92
754.921	1500.92
755.413	1500.92
755.906	1500.92
756.398	1500.92
756.89	1500.92
757.382	1500.92
757.874	1500.92
758.366	1500.92
758.858	1500.92
759.35	1500.92
759.843	1500.92
760.335	1500.92
760.827	1500.92
761.319	1500.92
761.811	1500.92
762.303	1496.18
762.795	1408.38
763.287	1091.8
763.78	865.743
764.272	865.743
764.764	865.743
765.256	865.743
765.748	865.743
766.24	865.743
766.732	865.743
767.224	865.743
767.717	865.743
768.209	865.743
768.701	865.743
769.193	865.743
769.685	865.743
770.177	865.743
770.669	865.743
771.161	865.743
771.654	865.743
772.146	865.743
772.638	865.743
773.13	865.743
773.622	865.743
774.114	865.743
774.606	865.743
775.099	862.506
775.591	791.783
776.083	426.077
776.575	288.906
777.067	288.906
777.559	288.906
778.051	288.906
778.543	288.906
779.035	288.906
779.528	288.906
780.02	288.906
780.512	288.906
781.004	288.906
781.496	288.906
781.988	288.906
782.48	288.906
782.972	288.906
783.465	288.906
783.957	288.906
784.449	288.906
784.941	288.906
785.433	288.906
785.925	288.906
786.417	288.906
786.909	288.906
787.402	288.906
787.894	282.665
788.386	170.454
788.878	-187.841
789.37	-321.648
789.862	-321.648
790.354	-321.648
790.846	-321.648
791.339	-321.648
791.831	-321.648
792.323	-321.648
792.815	-321.648
793.307	-321.648
793.799	-321.648
794.291	-321.648
794.784	-321.648
795.276	-321.648
795.768	-321.648
796.26	-321.648
796.752	-321.648
797.244	-321.648
797.736	-321.648
798.228	-321.648
798.721	-321.648
799.213	-321.648
799.705	-321.648
800.197	-321.648
800.689	-331.641
801.181	-498.608
801.673	-889.193
802.165	-1030.45
802.658	-1030.45
803.15	-1030.45
803.642	-1030.45
804.134	-1030.45
804.626	-1030.45
805.118	-1030.45
805.61	-1030.45
806.102	-1030.45
806.595	-1030.45
807.087	-1030.45
807.579	-1030.45
808.071	-1030.45
808.563	-1030.45
809.055	-1030.45
809.547	-1030.45
810.039	-1030.45
810.531	-1030.45
811.024	-1030.45
811.516	-1030.45
812.008	-1030.45
812.5	-1030.45
812.992	-1030.45
813.484	-1036.93
813.976	-1157.33
814.469	-1578.53
814.961	-1631.24
815.453	-1631.24
815.945	-1631.24
816.437	-1631.24
816.929	-1631.24
817.421	-1631.24
817.913	-1631.24
818.406	-1631.24
818.898	-1631.24
819.39	-1631.24
819.882	-1631.24
820.374	-1631.24
820.866	-1631.24
821.358	-1631.24
821.85	-1631.24
822.343	-1631.24
822.835	-1631.24
823.327	-1631.24
823.819	-1631.24
824.311	-1631.24
824.803	-1631.24
825.295	-1631.24
825.787	-1631.24
826.28	-1637.79
826.772	-1739.73
827.264	-1888.82
827.756	-1943.21
828.248	-1943.21
828.74	-1943.21
829.232	-1943.21
829.724	-1943.21
830.217	-1943.21
830.709	-1943.21
831.201	-1943.21
831.693	-1943.21
832.185	-1943.21
832.677	-1943.21
833.169	-1943.21
833.661	-1943.21
834.154	-1943.21
834.646	-1943.21
835.138	-1943.21
835.63	-1943.21
836.122	-1943.21
836.614	-1943.21
837.106	-1943.21
837.598	-1943.21
838.091	-1943.21
838.583	-1943.28
839.075	-1945.58
839.567	-1970.04
840.059	-2062.74
840.551	-2062.74
841.043	-2062.74
841.535	-2062.74
842.028	-2062.74
842.52	-2062.74
843.012	-2062.74
843.504	-2062.74
843.996	-2062.74
844.488	-2062.74
844.98	-2062.74
845.472	-2062.74
845.965	-2062.74
846.457	-2062.74
846.949	-2062.74
847.441	-2062.74
847.933	-2062.74
848.425	-2062.74
848.917	-2062.74
849.41	-2062.74
849.902	-2062.74
850.394	-2062.74
850.886	-2062.74
851.378	-2062.74
851.87	-2064.03
852.362	-2083.72
852.854	-2107.2
853.346	-2114.65
853.839	-2114.65
854.331	-2114.65
854.823	-2114.65
855.315	-2114.65
855.807	-2114.65
856.299	-2114.65
856.791	-2114.65
857.284	-2114.65
857.776	-2114.65
858.268	-2114.65
858.76	-2114.65
859.252	-2114.65
859.744	-2114.65
860.236	-2114.65
860.728	-2114.65
861.22	-2114.65
861.713	-2114.65
862.205	-2114.65
862.697	-2114.65
863.189	-2114.65
863.681	-2114.65
864.173	-2114.65
864.665	-2112.88
865.158	-2082.96
865.65	-2010.01
866.142	-2009.77
866.634	-2009.77
867.126	-2009.77
867.618	-2009.77
868.11	-2009.77
868.602	-2009.77
869.095	-2009.77
869.587	-2009.77
870.079	-2009.77
870.571	-2009.77
871.063	-2009.77
871.555	-2009.77
872.047	-2009.77
872.539	-2009.77
873.031	-2009.77
873.524	-2009.77
874.016	-2009.77
874.508	-2009.77
875	-2009.77
875.492	-2009.77
875.984	-2009.77
876.476	-2009.77
876.969	-2009.77
877.461	-2000.66
877.953	-1859.64
878.445	-1667.75
878.937	-1635.17
879.429	-1635.17
879.921	-1635.17
880.413	-1635.17
880.906	-1635.17
881.398	-1635.17
881.89	-1635.17
882.382	-1635.17
882.874	-1635.17
883.366	-1635.17
883.858	-1635.17
884.35	-1635.17
884.843	-1635.17
885.335	-1635.17
885.827	-1635.17
886.319	-1635.17
886.811	-1635.17
887.303	-1635.17
887.795	-1635.17
888.287	-1635.17
888.78	-1635.17
889.272	-1635.17
889.764	-1635.17
890.256	-1621.81
890.748	-1415.45
891.24	-1139.68
891.732	-1095.45
892.224	-1095.45
892.717	-1095.45
893.209	-1095.45
893.701	-1095.45
894.193	-1095.45
894.685	-1095.45
895.177	-1095.45
895.669	-1095.45
896.161	-1095.45
896.654	-1095.45
897.146	-1095.45
897.638	-1095.45
898.13	-1095.45
898.622	-1095.45
899.114	-1095.45
899.606	-1095.45
900.098	-1095.45
900.591	-1095.45
901.083	-1095.45
901.575	-1095.45
902.067	-1095.45
902.559	-1095.12
903.051	-1081.59
903.543	-931.978
904.036	-590.436
904.528	-590.436
905.02	-590.436
905.512	-590.436
906.004	-590.436
906.496	-590.436
906.988	-590.436
907.48	-590.436
907.972	-590.436
908.465	-590.436
908.957	-590.436
909.449	-590.436
909.941	-590.436
910.433	-590.436
910.925	-590.436
911.417	-590.436
911.909	-590.436
912.402	-590.436
912.894	-590.436
913.386	-590.436
913.878	-590.436
914.37	-590.436
914.862	-590.436
915.354	-590.436
915.847	-578.346
916.339	-395.879
916.831	-204.579
917.323	-149.579
917.815	-149.579
918.307	-149.579
918.799	-149.579
919.291	-149.579
919.784	-149.579
920.276	-149.579
920.768	-149.579
921.26	-149.579
921.752	-149.579
922.244	-149.579
922.736	-149.579
923.228	-149.579
923.721	-149.579
924.213	-149.579
924.705	-149.579
925.197	-149.579
925.689	-149.579
926.181	-149.579
926.673	-149.579
927.165	-149.579
927.657	-149.579
928.15	-149.192
928.642	-136.074
929.134	-3.74439
929.626	339.748
930.118	339.748
930.61	339.748
931.102	339.748
931.595	339.748
932.087	339.748
932.579	339.748
933.071	339.748
933.563	339.748
934.055	339.748
934.547	339.748
935.039	339.748
935.532	339.748
936.024	339.748
936.516	339.748
937.008	339.748
937.5	339.748
937.992	339.748
938.484	339.748
938.976	339.748
939.469	339.748
939.961	339.748
940.453	339.748
940.945	339.748
941.437	351.819
941.929	538.857
942.421	797.93
942.913	855.172
943.406	855.172
943.898	855.172
944.39	855.172
944.882	855.172
945.374	855.172
945.866	855.172
946.358	855.172
946.85	855.172
947.343	855.172
947.835	855.172
948.327	855.172
948.819	855.172
949.311	855.172
949.803	855.172
950.295	855.172
950.787	855.172
951.28	855.172
951.772	855.172
952.264	855.172
952.756	855.172
953.248	855.172
953.74	855.172
954.232	862.28
954.724	974.451
955.217	1155.71
955.709	1193.53
956.201	1193.53
956.693	1193.53
957.185	1193.53
957.677	1193.53
958.169	1193.53
958.661	1193.53
959.154	1193.53
959.646	1193.53
960.138	1193.53
960.63	1193.53
961.122	1193.53
961.614	1193.53
962.106	1193.53
962.599	1193.53
963.091	1193.53
963.583	1193.53
964.075	1193.53
964.567	1193.53
965.059	1193.53
965.551	1193.53
966.043	1193.53
966.535	1193.53
967.028	1194.57
967.52	1214.07
968.012	1283.25
968.504	1285.14
968.996	1285.14
969.488	1285.14
969.98	1285.14
970.473	1285.14
970.965	1285.14
971.457	1285.14
971.949	1285.14
972.441	1285.14
972.933	1285.14
973.425	1285.14
973.917	1285.14
974.409	1285.14
974.902	1285.14
975.394	1285.14
975.886	1285.14
976.378	1285.14
976.87	1285.14
977.362	1285.14
977.854	1285.14
978.346	1285.14
978.839	1285.14
979.331	1285.14
979.823	1285.85
980.315	1296.97
980.807	1313.62
981.299	1320.55
981.791	1320.55
982.284	1320.55
982.776	1320.55
983.268	1320.55
983.76	1320.55
984.252	1320.55
984.744	1320.55
985.236	1320.55
985.728	1320.55
986.221	1320.55
986.713	1320.55
987.205	1320.55
987.697	1320.55
988.189	1320.55
988.681	1320.55
989.173	1320.55
989.665	1320.55
990.158	1320.55
990.65	1320.55
991.142	1320.55
991.634	1320.55
992.126	1320.55
992.618	1321.31
993.11	1336.19
993.602	1395.55
994.094	1404.27
994.587	1404.27
995.079	1404.27
995.571	1404.27
996.063	1404.27
996.555	1404.27
997.047	1404.27
997.539	1404.27
998.032	1404.27
998.524	1404.27
999.016	1404.27
999.508	1404.27
1000	1404.27
1000.49	1404.27
1000.98	1404.27
1001.48	1404.27
1001.97	1404.27
1002.46	1404.27
1002.95	1404.27
1003.44	1404.27
1003.94	1404.27
1004.43	1404.27
1004.92	1404.27
1005.41	1403.81
1005.91	1395.39
1006.4	1367.94
1006.89	1359.29
1007.38	1359.29
1007.87	1359.29
1008.37	1359.29
1008.86	1359.29
1009.35	1359.29
1009.84	1359.29
1010.33	1359.29
1010.83	1359.29
1011.32	1359.29
1011.81	1359.29
1012.3	1359.29
1012.8	1359.29
1013.29	1359.29
1013.78	1359.29
1014.27	1359.29
1014.76	1359.29
1015.26	1359.29
1015.75	1359.29
1016.24	1359.29
1016.73	1359.29
1017.22	1359.29
1017.72	1359.29
1018.21	1356.08
1018.7	1302.29
1019.19	1171.87
1019.69	1092.93
1020.18	1092.93
1020.67	1092.93
1021.16	1092.93
1021.65	1092.93
1022.15	1092.93
1022.64	1092.93
1023.13	1092.93
1023.62	1092.93
1024.11	1092.93
1024.61	1092.93
1025.1	1092.93
1025.59	1092.93
1026.08	1092.93
1026.57	1092.93
1027.07	1092.93
1027.56	1092.93
1028.05	1092.93
1028.54	1092.93
1029.04	1092.93
1029.53	1092.93
1030.02	1092.93
1030.51	1092.93
1031	1092.93
1031.5	1079.52
1031.99	888.527
1032.48	839.126
1032.97	835.743
1033.46	835.743
1033.96	835.743
1034.45	835.743
1034.94	835.743
1035.43	835.743
1035.93	835.743
1036.42	835.743
1036.91	835.743
1037.4	835.743
1037.89	835.743
1038.39	835.743
1038.88	835.743
1039.37	835.743
1039.86	835.743
1040.35	835.743
1040.85	835.743
1041.34	835.743
1041.83	835.743
1042.32	835.743
1042.81	835.743
1043.31	835.743
1043.8	835.31
1044.29	826.478
1044.78	785.338
1045.28	753.208
1045.77	753.208
1046.26	753.208
1046.75	753.208
1047.24	753.208
1047.74	753.208
1048.23	753.208
1048.72	753.208
1049.21	753.208
1049.7	753.208
1050.2	753.208
1050.69	753.208
1051.18	753.208
1051.67	753.208
1052.17	753.208
1052.66	753.208
1053.15	753.208
1053.64	753.208
1054.13	753.208
1054.63	753.208
1055.12	753.208
1055.61	753.208
1056.1	753.208
1056.59	752.905
1057.09	745.862
1057.58	703.552
1058.07	659.656
1058.56	659.656
1059.06	659.656
1059.55	659.656
1060.04	659.656
1060.53	659.656
1061.02	659.656
1061.52	659.656
1062.01	659.656
1062.5	659.656
1062.99	659.656
1063.48	659.656
1063.98	659.656
1064.47	659.656
1064.96	659.656
1065.45	659.656
1065.94	659.656
1066.44	659.656
1066.93	659.656
1067.42	659.656
1067.91	659.656
1068.41	659.656
1068.9	659.656
1069.39	659.656
1069.88	650.681
1070.37	517.977
1070.87	415.91
1071.36	394.47
1071.85	394.47
1072.34	394.47
1072.83	394.47
1073.33	394.47
1073.82	394.47
1074.31	394.47
1074.8	394.47
1075.3	394.47
1075.79	394.47
1076.28	394.47
1076.77	394.47
1077.26	394.47
1077.76	394.47
1078.25	394.47
1078.74	394.47
1079.23	394.47
1079.72	394.47
1080.22	394.47
1080.71	394.47
1081.2	394.47
1081.69	394.47
1082.19	394.432
1082.68	389.08
1083.17	309.244
1083.66	136.806
1084.15	136.806
1084.65	136.806
1085.14	136.806
1085.63	136.806
1086.12	136.806
1086.61	136.806
1087.11	136.806
1087.6	136.806
1088.09	136.806
1088.58	136.806
1089.07	136.806
1089.57	136.806
1090.06	136.806
1090.55	136.806
1091.04	136.806
1091.54	136.806
1092.03	136.806
1092.52	136.806
1093.01	136.806
1093.5	136.806
1094	136.806
1094.49	136.806
1094.98	136.806
1095.47	135.602
1095.96	115.467
1096.46	68.8047
1096.95	61.7585
1097.44	61.7585
1097.93	61.7585
1098.43	61.7585
1098.92	61.7585
1099.41	61.7585
1099.9	61.7585
1100.39	61.7585
1100.89	61.7585
1101.38	61.7585
1101.87	61.7585
1102.36	61.7585
1102.85	61.7585
1103.35	61.7585
1103.84	61.7585
1104.33	61.7585
1104.82	61.7585
1105.32	61.7585
1105.81	61.7585
1106.3	61.7585
1106.79	61.7585
1107.28	61.7585
1107.78	61.7585
1108.27	60.7641
1108.76	44.848
1109.25	15.6813
1109.74	0.8945
1110.24	0.8945
1110.73	0.8945
1111.22	0.8945
1111.71	0.8945
1112.2	0.8945
1112.7	0.8945
1113.19	0.8945
1113.68	0.8945
1114.17	0.8945
1114.67	0.8945
1115.16	0.8945
1115.65	0.8945
1116.14	0.8945
1116.63	0.8945
1117.13	0.8945
1117.62	0.8945
1118.11	0.8945
1118.6	0.8945
1119.09	0.8945
1119.59	0.8945
1120.08	0.8945
1120.57	0.8945
1121.06	0.267556
1121.56	-21.7484
1122.05	-210.837
1122.54	-264.199
1123.03	-264.199
1123.52	-264.199
1124.02	-264.199
1124.51	-264.199
1125	-264.199
1125.49	-264.199
1125.98	-264.199
1126.48	-264.199
1126.97	-264.199
1127.46	-264.199
1127.95	-264.199
1128.44	-264.199
1128.94	-264.199
1129.43	-264.199
1129.92	-264.199
1130.41	-264.199
1130.91	-264.199
1131.4	-264.199
1131.89	-264.199
1132.38	-264.199
1132.87	-264.199
1133.37	-264.199
1133.86	-264.43
1134.35	-282.657
1134.84	-501.111
1135.33	-623.486
1135.83	-623.486
1136.32	-623.486
1136.81	-623.486
1137.3	-623.486
1137.8	-623.486
1138.29	-623.486
1138.78	-623.486
1139.27	-623.486
1139.76	-623.486
1140.26	-623.486
1140.75	-623.486
1141.24	-623.486
1141.73	-623.486
1142.22	-623.486
1142.72	-623.486
1143.21	-623.486
1143.7	-623.486
1144.19	-623.486
1144.69	-623.486
1145.18	-623.486
1145.67	-623.486
1146.16	-623.486
1146.65	-624.313
1147.15	-641.063
1147.64	-722.37
1148.13	-846.239
1148.62	-846.239
1149.11	-846.239
1149.61	-846.239
1150.1	-846.239
1150.59	-846.239
1151.08	-846.239
1151.57	-846.239
1152.07	-846.239
1152.56	-846.239
1153.05	-846.239
1153.54	-846.239
1154.04	-846.239
1154.53	-846.239
1155.02	-846.239
1155.51	-846.239
1156	-846.239
1156.5	-846.239
1156.99	-846.239
1157.48	-846.239
1157.97	-846.239
1158.46	-846.239
1158.96	-846.239
1159.45	-846.239
1159.94	-849.923
1160.43	-906.531
1160.93	-978.683
1161.42	-993.739
1161.91	-993.739
1162.4	-993.739
1162.89	-993.739
1163.39	-993.739
1163.88	-993.739
1164.37	-993.739
1164.86	-993.739
1165.35	-993.739
1165.85	-993.739
1166.34	-993.739
1166.83	-993.739
1167.32	-993.739
1167.82	-993.739
1168.31	-993.739
1168.8	-993.739
1169.29	-993.739
1169.78	-993.739
1170.28	-993.739
1170.77	-993.739
1171.26	-993.739
1171.75	-993.739
1172.24	-993.739
1172.74	-999.201
1173.23	-1086.47
1173.72	-1242.93
1174.21	-1302.06
1174.7	-1302.06
1175.2	-1302.06
1175.69	-1302.06
1176.18	-1302.06
1176.67	-1302.06
1177.17	-1302.06
1177.66	-1302.06
1178.15	-1302.06
1178.64	-1302.06
1179.13	-1302.06
1179.63	-1302.06
1180.12	-1302.06
1180.61	-1302.06
1181.1	-1302.06
1181.59	-1302.06
1182.09	-1302.06
1182.58	-1302.06
1183.07	-1302.06
1183.56	-1302.06
1184.06	-1302.06
1184.55	-1302.06
1185.04	-1302.06
1185.53	-1302.06
1186.02	-1325.51
1186.52	-1657.51
1187.01	-1713.79
1187.5	-1715.58
1187.99	-1715.58
1188.48	-1715.58
1188.98	-1715.58
1189.47	-1715.58
1189.96	-1715.58
1190.45	-1715.58
1190.94	-1715.58
1191.44	-1715.58
1191.93	-1715.58
1192.42	-1715.58
1192.91	-1715.58
1193.41	-1715.58
1193.9	-1715.58
1194.39	-1715.58
1194.88	-1715.58
1195.37	-1715.58
1195.87	-1715.58
1196.36	-1715.58
1196.85	-1715.58
1197.34	-1715.58
1197.83	-1715.58
1198.33	-1715.97
1198.82	-1728.5
1199.31	-1831.57
1199.8	-1903.77
1200.3	-1903.77
1200.79	-1903.77
1201.28	-1903.77
1201.77	-1903.77
1202.26	-1903.77
1202.76	-1903.77
1203.25	-1903.77
1203.74	-1903.77
1204.23	-1903.77
1204.72	-1903.77
1205.22	-1903.77
1205.71	-1903.77
1206.2	-1903.77
1206.69	-1903.77
1207.19	-1903.77
1207.68	-1903.77
1208.17	-1903.77
1208.66	-1903.77
1209.15	-1903.77
1209.65	-1903.77
1210.14	-1903.77
1210.63	-1903.77
1211.12	-1903.51
1211.61	-1897.7
1212.11	-1863.62
1212.6	-1801.05
1213.09	-1801.05
1213.58	-1801.05
1214.07	-1801.05
1214.57	-1801.05
1215.06	-1801.05
1215.55	-1801.05
1216.04	-1801.05
1216.54	-1801.05
1217.03	-1801.05
1217.52	-1801.05
1218.01	-1801.05
1218.5	-1801.05
1219	-1801.05
1219.49	-1801.05
1219.98	-1801.05
1220.47	-1801.05
1220.96	-1801.05
1221.46	-1801.05
1221.95	-1801.05
1222.44	-1801.05
1222.93	-1801.05
1223.43	-1801.05
1223.92	-1801.05
1224.41	-1799.06
1224.9	-1767.61
1225.39	-1716.53
1225.89	-1701.73
1226.38	-1701.73
1226.87	-1701.73
1227.36	-1701.73
1227.85	-1701.73
1228.35	-1701.73
1228.84	-1701.73
1229.33	-1701.73
1229.82	-1701.73
1230.31	-1701.73
1230.81	-1701.73
1231.3	-1701.73
1231.79	-1701.73
1232.28	-1701.73
1232.78	-1701.73
1233.27	-1701.73
1233.76	-1701.73
1234.25	-1701.73
1234.74	-1701.73
1235.24	-1701.73
1235.73	-1701.73
1236.22	-1701.73
1236.71	-1701.73
1237.2	-1701.19
1237.7	-1692.15
1238.19	-1670.51
1238.68	-1658.35
1239.17	-1658.35
1239.67	-1658.35
1240.16	-1658.35
1240.65	-1658.35
1241.14	-1658.35
1241.63	-1658.35
1242.13	-1658.35
1242.62	-1658.35
1243.11	-1658.35
1243.6	-1658.35
1244.09	-1658.35
1244.59	-1658.35
1245.08	-1658.35
1245.57	-1658.35
1246.06	-1658.35
1246.56	-1658.35
1247.05	-1658.35
1247.54	-1658.35
1248.03	-1658.35
1248.52	-1658.35
1249.02	-1658.35
1249.51	-1658.35
1250	-1658.35
1250.49	-1642.87
1250.98	-1418.76
1251.48	-1311.31
1251.97	-1301.75
1252.46	-1301.75
1252.95	-1301.75
1253.44	-1301.75
1253.94	-1301.75
1254.43	-1301.75
1254.92	-1301.75
1255.41	-1301.75
1255.91	-1301.75
1256.4	-1301.75
1256.89	-1301.75
1257.38	-1301.75
1257.87	-1301.75
1258.37	-1301.75
1258.86	-1301.75
1259.35	-1301.75
1259.84	-1301.75
1260.33	-1301.75
1260.83	-1301.75
1261.32	-1301.75
1261.81	-1301.75
1262.3	-1301.75
1262.8	-1301.75
1263.29	-1279.6
1263.78	-943.992
1264.27	-578.085
1264.76	-521.107
1265.26	-521.107
1265.75	-521.107
1266.24	-521.107
1266.73	-521.107
1267.22	-521.107
1267.72	-521.107
1268.21	-521.107
1268.7	-521.107
1269.19	-521.107
1269.69	-521.107
1270.18	-521.107
1270.67	-521.107
1271.16	-521.107
1271.65	-521.107
1272.15	-521.107
1272.64	-521.107
1273.13	-521.107
1273.62	-521.107
1274.11	-521.107
1274.61	-521.107
1275.1	-521.107
1275.59	-521.107
1276.08	-516.72
1276.57	-408.334
1277.07	250.644
1277.56	266.3
1278.05	266.3
1278.54	266.3
1279.04	266.3
1279.53	266.3
1280.02	266.3
1280.51	266.3
1281	266.3
1281.5	266.3
1281.99	266.3
1282.48	266.3
1282.97	266.3
1283.46	266.3
1283.96	266.3
1284.45	266.3
1284.94	266.3
1285.43	266.3
1285.93	266.3
1286.42	266.3
1286.91	266.3
1287.4	266.3
1287.89	266.3
1288.39	266.3
1288.88	268.85
1289.37	329.098
1289.86	683.455
1290.35	844.734
1290.85	844.734
1291.34	844.734
1291.83	844.734
1292.32	844.734
1292.82	844.734
1293.31	844.734
1293.8	844.734
1294.29	844.734
1294.78	844.734
1295.28	844.734
1295.77	844.734
1296.26	844.734
1296.75	844.734
1297.24	844.734
1297.74	844.734
1298.23	844.734
1298.72	844.734
1299.21	844.734
1299.7	844.734
1300.2	844.734
1300.69	844.734
1301.18	844.734
1301.67	847.32
1302.17	899.745
1302.66	1156.33
1303.15	1542.9
1303.64	1542.9
1304.13	1542.9
1304.63	1542.9
1305.12	1542.9
1305.61	1542.9
1306.1	1542.9
1306.59	1542.9
1307.09	1542.9
1307.58	1542.9
1308.07	1542.9
1308.56	1542.9
1309.06	1542.9
1309.55	1542.9
1310.04	1542.9
1310.53	1542.9
1311.02	1542.9
1311.52	1542.9
1312.01	1542.9
1312.5	1542.9
1312.99	1542.9
1313.48	1542.9
1313.98	1542.9
1314.47	1542.9
1314.96	1559.36
1315.45	1829.2
1315.94	2390.78
1316.44	2490.84
1316.93	2490.84
1317.42	2490.84
1317.91	2490.84
1318.41	2490.84
1318.9	2490.84
1319.39	2490.84
1319.88	2490.84
1320.37	2490.84
1320.87	2490.84
1321.36	2490.84
1321.85	2490.84
1322.34	2490.84
1322.83	2490.84
1323.33	2490.84
1323.82	2490.84
1324.31	2490.84
1324.8	2490.84
1325.3	2490.84
1325.79	2490.84
1326.28	2490.84
1326.77	2490.84
1327.26	2490.84
1327.76	2499.31
1328.25	2641.27
1328.74	2986.46
1329.23	3227.34
1329.72	3227.34
1330.22	3227.34
1330.71	3227.34
1331.2	3227.34
1331.69	3227.34
1332.19	3227.34
1332.68	3227.34
1333.17	3227.34
1333.66	3227.34
1334.15	3227.34
1334.65	3227.34
1335.14	3227.34
1335.63	3227.34
1336.12	3227.34
1336.61	3227.34
1337.11	3227.34
1337.6	3227.34
1338.09	3227.34
1338.58	3227.34
1339.07	3227.34
1339.57	3227.34
1340.06	3227.34
1340.55	3227.48
1341.04	3235.93
1341.54	3333.65
1342.03	3435.28
1342.52	3435.28
1343.01	3435.28
1343.5	3435.28
1344	3435.28
1344.49	3435.28
1344.98	3435.28
1345.47	3435.28
1345.96	3435.28
1346.46	3435.28
1346.95	3435.28
1347.44	3435.28
1347.93	3435.28
1348.43	3435.28
1348.92	3435.28
1349.41	3435.28
1349.9	3435.28
1350.39	3435.28
1350.89	3435.28
1351.38	3435.28
1351.87	3435.28
1352.36	3435.28
1352.85	3435.28
1353.35	3435.28
1353.84	3434.74
1354.33	3426.43
1354.82	3415.06
1355.31	3410.76
1355.81	3410.76
1356.3	3410.76
1356.79	3410.76
1357.28	3410.76
1357.78	3410.76
1358.27	3410.76
1358.76	3410.76
1359.25	3410.76
1359.74	3410.76
1360.24	3410.76
1360.73	3410.76
1361.22	3410.76
1361.71	3410.76
1362.2	3410.76
1362.7	3410.76
1363.19	3410.76
1363.68	3410.76
1364.17	3410.76
1364.67	3410.76
1365.16	3410.76
1365.65	3410.76
1366.14	3410.76
1366.63	3410.79
1367.13	3411.44
1367.62	3413.86
1368.11	3415.23
1368.6	3415.23
1369.09	3415.23
1369.59	3415.23
1370.08	3415.23
1370.57	3415.23
1371.06	3415.23
1371.56	3415.23
1372.05	3415.23
1372.54	3415.23
1373.03	3415.23
1373.52	3415.23
1374.02	3415.23
1374.51	3415.23
1375	3415.23
1375.49	3415.23
1375.98	3415.23
1376.48	3415.23
1376.97	3415.23
1377.46	3415.23
1377.95	3415.23
1378.44	3415.23
1378.94	3415.23
1379.43	3415.23
1379.92	3406.04
1380.41	3270.01
1380.91	3163.74
1381.4	3142.23
1381.89	3142.23
1382.38	3142.23
1382.87	3142.23
1383.37	3142.23
1383.86	3142.23
1384.35	3142.23
1384.84	3142.23
1385.33	3142.23
1385.83	3142.23
1386.32	3142.23
1386.81	3142.23
1387.3	3142.23
1387.8	3142.23
1388.29	3142.23
1388.78	3142.23
1389.27	3142.23
1389.76	3142.23
1390.26	3142.23
1390.75	3142.23
1391.24	3142.23
1391.73	3142.23
1392.22	3142.23
1392.72	3127.43
1393.21	2888.3
1393.7	2417.13
1394.19	2247.57
1394.69	2247.57
1395.18	2247.57
1395.67	2247.57
1396.16	2247.57
1396.65	2247.57
1397.15	2247.57
1397.64	2247.57
1398.13	2247.57
1398.62	2247.57
1399.11	2247.57
1399.61	2247.57
1400.1	2247.57
1400.59	2247.57
1401.08	2247.57
1401.57	2247.57
1402.07	2247.57
1402.56	2247.57
1403.05	2247.57
1403.54	2247.57
1404.04	2247.57
1404.53	2247.57
1405.02	2247.57
1405.51	2247.57
1406	2190.84
1406.5	1372.39
1406.99	1020.16
1407.48	995.806
1407.97	995.806
1408.46	995.806
1408.96	995.806
1409.45	995.806
1409.94	995.806
1410.43	995.806
1410.93	995.806
1411.42	995.806
1411.91	995.806
1412.4	995.806
1412.89	995.806
1413.39	995.806
1413.88	995.806
1414.37	995.806
1414.86	995.806
1415.35	995.806
1415.85	995.806
1416.34	995.806
1416.83	995.806
1417.32	995.806
1417.82	995.806
1418.31	995.806
1418.8	967.478
1419.29	536.119
1419.78	34.5358
1420.28	-94.7621
1420.77	-94.7621
1421.26	-94.7621
1421.75	-94.7621
1422.24	-94.7621
1422.74	-94.7621
1423.23	-94.7621
1423.72	-94.7621
1424.21	-94.7621
1424.7	-94.7621
1425.2	-94.7621
1425.69	-94.7621
1426.18	-94.7621
1426.67	-94.7621
1427.17	-94.7621
1427.66	-94.7621
1428.15	-94.7621
1428.64	-94.7621
1429.13	-94.7621
1429.63	-94.7621
1430.12	-94.7621
1430.61	-94.7621
1431.1	-94.7621
1431.59	-100.037
1432.09	-218.429
1432.58	-855.169
1433.07	-1058.71
1433.56	-1058.71
1434.06	-1058.71
1434.55	-1058.71
1435.04	-1058.71
1435.53	-1058.71
1436.02	-1058.71
1436.52	-1058.71
1437.01	-1058.71
1437.5	-1058.71
1437.99	-1058.71
1438.48	-1058.71
1438.98	-1058.71
1439.47	-1058.71
1439.96	-1058.71
1440.45	-1058.71
1440.94	-1058.71
1441.44	-1058.71
1441.93	-1058.71
1442.42	-1058.71
1442.91	-1058.71
1443.41	-1058.71
1443.9	-1058.71
1444.39	-1058.71
1444.88	-1103.64
1445.37	-1766.5
1445.87	-2255.98
1446.36	-2353.44
1446.85	-2353.44
1447.34	-2353.44
1447.83	-2353.44
1448.33	-2353.44
1448.82	-2353.44
1449.31	-2353.44
1449.8	-2353.44
1450.3	-2353.44
1450.79	-2353.44
1451.28	-2353.44
1451.77	-2353.44
1452.26	-2353.44
1452.76	-2353.44
1453.25	-2353.44
1453.74	-2353.44
1454.23	-2353.44
1454.72	-2353.44
1455.22	-2353.44
1455.71	-2353.44
1456.2	-2353.44
1456.69	-2353.44
1457.19	-2353.44
1457.68	-2374.01
1458.17	-2722.21
1458.66	-3587.65
1459.15	-3858.03
1459.65	-3858.03
1460.14	-3858.03
1460.63	-3858.03
1461.12	-3858.03
1461.61	-3858.03
1462.11	-3858.03
1462.6	-3858.03
1463.09	-3858.03
1463.58	-3858.03
1464.07	-3858.03
1464.57	-3858.03
1465.06	-3858.03
1465.55	-3858.03
1466.04	-3858.03
1466.54	-3858.03
1467.03	-3858.03
1467.52	-3858.03
1468.01	-3858.03
1468.5	-3858.03
1469	-3858.03
1469.49	-3858.03
1469.98	-3858.03
1470.47	-3858.03
1470.96	-3896.41
1471.46	-4454.1
1471.95	-4749.24
1472.44	-4786.98
1472.93	-4786.98
1473.43	-4786.98
1473.92	-4786.98
1474.41	-4786.98
1474.9	-4786.98
1475.39	-4786.98
1475.89	-4786.98
1476.38	-4786.98
1476.87	-4786.98
1477.36	-4786.98
1477.85	-4786.98
1478.35	-4786.98
1478.84	-4786.98
1479.33	-4786.98
1479.82	-4786.98
1480.32	-4786.98
1480.81	-4786.98
1481.3	-4786.98
1481.79	-4786.98
1482.28	-4786.98
1482.78	-4786.98
1483.27	-4786.98
1483.76	-4790.69
1484.25	-4848.56
1484.74	-4937.72
1485.24	-4967.74
1485.73	-4967.74
1486.22	-4967.74
1486.71	-4967.74
1487.2	-4967.74
1487.7	-4967.74
1488.19	-4967.74
1488.68	-4967.74
1489.17	-4967.74
1489.67	-4967.74
1490.16	-4967.74
1490.65	-4967.74
1491.14	-4967.74
1491.63	-4967.74
1492.13	-4967.74
1492.62	-4967.74
1493.11	-4967.74
1493.6	-4967.74
1494.09	-4967.74
1494.59	-4967.74
1495.08	-4967.74
1495.57	-4967.74
1496.06	-4967.74
1496.56	-4967.99
1497.05	-4980.03
1497.54	-5103.64
1498.03	-5169.02
1498.52	-5169.02
1499.02	-5169.02
1499.51	-5169.02
1500	-5169.02
1500.49	-5169.02
1500.98	-5169.02
1501.48	-5169.02
1501.97	-5169.02
1502.46	-5169.02
1502.95	-5169.02
1503.44	-5169.02
1503.94	-5169.02
1504.43	-5169.02
1504.92	-5169.02
1505.41	-5169.02
1505.91	-5169.02
1506.4	-5169.02
1506.89	-5169.02
1507.38	-5169.02
1507.87	-5169.02
1508.37	-5169.02
1508.86	-5169.02
1509.35	-5169.02
1509.84	-5177.94
1510.33	-5314.13
1510.83	-5479.02
1511.32	-5534.47
1511.81	-5534.47
1512.3	-5534.47
1512.8	-5534.47
1513.29	-5534.47
1513.78	-5534.47
1514.27	-5534.47
1514.76	-5534.47
1515.26	-5534.47
1515.75	-5534.47
1516.24	-5534.47
1516.73	-5534.47
1517.22	-5534.47
1517.72	-5534.47
1518.21	-5534.47
1518.7	-5534.47
1519.19	-5534.47
1519.69	-5534.47
1520.18	-5534.47
1520.67	-5534.47
1521.16	-5534.47
1521.65	-5534.47
1522.15	-5534.47
1522.64	-5531.16
1523.13	-5468.66
1523.62	-5231.56
1524.11	-5064.75
1524.61	-5064.75
1525.1	-5064.75
1525.59	-5064.75
1526.08	-5064.75
1526.57	-5064.75
1527.07	-5064.75
1527.56	-5064.75
1528.05	-5064.75
1528.54	-5064.75
1529.04	-5064.75
1529.53	-5064.75
1530.02	-5064.75
1530.51	-5064.75
1531	-5064.75
1531.5	-5064.75
1531.99	-5064.75
1532.48	-5064.75
1532.97	-5064.75
1533.46	-5064.75
1533.96	-5064.75
1534.45	-5064.75
1534.94	-5064.75
1535.43	-5064.75
1535.93	-5026.93
1536.42	-4444.71
1536.91	-3685.12
1537.4	-3501.66
1537.89	-3501.66
1538.39	-3501.66
1538.88	-3501.66
1539.37	-3501.66
1539.86	-3501.66
1540.35	-3501.66
1540.85	-3501.66
1541.34	-3501.66
1541.83	-3501.66
1542.32	-3501.66
1542.82	-3501.66
1543.31	-3501.66
1543.8	-3501.66
1544.29	-3501.66
1544.78	-3501.66
1545.28	-3501.66
1545.77	-3501.66
1546.26	-3501.66
1546.75	-3501.66
1547.24	-3501.66
1547.74	-3501.66
1548.23	-3501.66
1548.72	-3487.68
1549.21	-3246.27
1549.7	-2564.83
1550.2	-2003.26
1550.69	-2003.26
1551.18	-2003.26
1551.67	-2003.26
1552.17	-2003.26
1552.66	-2003.26
1553.15	-2003.26
1553.64	-2003.26
1554.13	-2003.26
1554.63	-2003.26
1555.12	-2003.26
1555.61	-2003.26
1556.1	-2003.26
1556.59	-2003.26
1557.09	-2003.26
1557.58	-2003.26
1558.07	-2003.26
1558.56	-2003.26
1559.06	-2003.26
1559.55	-2003.26
1560.04	-2003.26
1560.53	-2003.26
1561.02	-2003.26
1561.52	-2003.26
1562.01	-1984.38
1562.5	-1674.03
1562.99	-1025.28
1563.48	-980.262
1563.98	-980.262
1564.47	-980.262
1564.96	-980.262
1565.45	-980.262
1565.94	-980.262
1566.44	-980.262
1566.93	-980.262
1567.42	-980.262
1567.91	-980.262
1568.41	-980.262
1568.9	-980.262
1569.39	-980.262
1569.88	-980.262
1570.37	-980.262
1570.87	-980.262
1571.36	-980.262
1571.85	-980.262
1572.34	-980.262
1572.83	-980.262
1573.33	-980.262
1573.82	-980.262
1574.31	-980.262
1574.8	-968.955
1575.3	-754.777
1575.79	79.4217
1576.28	688.298
1576.77	688.298
1577.26	688.298
1577.76	688.298
1578.25	688.298
1578.74	688.298
1579.23	688.298
1579.72	688.298
1580.22	688.298
1580.71	688.298
1581.2	688.298
1581.69	688.298
1582.19	688.298
1582.68	688.298
1583.17	688.298
1583.66	688.298
1584.15	688.298
1584.65	688.298
1585.14	688.298
1585.63	688.298
1586.12	688.298
1586.61	688.298
1587.11	688.298
1587.6	689.895
1588.09	740.557
1588.58	1281.4
1589.07	3305.32
1589.57	3305.32
1590.06	3305.32
1590.55	3305.32
1591.04	3305.32
1591.54	3305.32
1592.03	3305.32
1592.52	3305.32
1593.01	3305.32
1593.5	3305.32
1594	3305.32
1594.49	3305.32
1594.98	3305.32
1595.47	3305.32
1595.96	3305.32
1596.46	3305.32
1596.95	3305.32
1597.44	3305.32
1597.93	3305.32
1598.43	3305.32
1598.92	3305.32
1599.41	3305.32
1599.9	3305.32
1600.39	3305.32
1600.89	3305.32
1601.38	3401.24
1601.87	4791.16
1602.36	5469.1
1602.85	5498.92
1603.35	5498.92
1603.84	5498.92
1604.33	5498.92
1604.82	5498.92
1605.32	5498.92
1605.81	5498.92
1606.3	5498.92
1606.79	5498.92
1607.28	5498.92
1607.78	5498.92
1608.27	5498.92
1608.76	5498.92
1609.25	5498.92
1609.74	5498.92
1610.24	5498.92
1610.73	5498.92
1611.22	5498.92
1611.71	5498.92
1612.2	5498.92
1612.7	5498.92
1613.19	5498.92
1613.68	5498.92
1614.17	5515.51
1614.67	5794.98
1615.16	6478.71
1615.65	6615.75
1616.14	6615.75
1616.63	6615.75
1617.13	6615.75
1617.62	6615.75
1618.11	6615.75
1618.6	6615.75
1619.09	6615.75
1619.59	6615.75
1620.08	6615.75
1620.57	6615.75
1621.06	6615.75
1621.56	6615.75
1622.05	6615.75
1622.54	6615.75
1623.03	6615.75
1623.52	6615.75
1624.02	6615.75
1624.51	6615.75
1625	6615.75
1625.49	6615.75
1625.98	6615.75
1626.48	6615.75
1626.97	6615.75
1627.46	6657.13
1627.95	7261.89
1628.44	7630.52
1628.94	7682.05
1629.43	7682.05
1629.92	7682.05
1630.41	7682.05
1630.91	7682.05
1631.4	7682.05
1631.89	7682.05
1632.38	7682.05
1632.87	7682.05
1633.37	7682.05
1633.86	7682.05
1634.35	7682.05
1634.84	7682.05
1635.33	7682.05
1635.83	7682.05
1636.32	7682.05
1636.81	7682.05
1637.3	7682.05
1637.8	7682.05
1638.29	7682.05
1638.78	7682.05
1639.27	7682.05
1639.76	7682.05
1640.26	7705.66
1640.75	8086.4
1641.24	8821.94
1641.73	9210.62
1642.22	9210.62
1642.72	9210.62
1643.21	9210.62
1643.7	9210.62
1644.19	9210.62
1644.69	9210.62
1645.18	9210.62
1645.67	9210.62
1646.16	9210.62
1646.65	9210.62
1647.15	9210.62
1647.64	9210.62
1648.13	9210.62
1648.62	9210.62
1649.11	9210.62
1649.61	9210.62
1650.1	9210.62
1650.59	9210.62
1651.08	9210.62
1651.57	9210.62
1652.07	9210.62
1652.56	9210.62
1653.05	9211.06
1653.54	9237.82
1654.04	9560.1
1654.53	10059.8
1655.02	10059.8
1655.51	10059.8
1656	10059.8
1656.5	10059.8
1656.99	10059.8
1657.48	10059.8
1657.97	10059.8
1658.46	10059.8
1658.96	10059.8
1659.45	10059.8
1659.94	10059.8
1660.43	10059.8
1660.93	10059.8
1661.42	10059.8
1661.91	10059.8
1662.4	10059.8
1662.89	10059.8
1663.39	10059.8
1663.88	10059.8
1664.37	10059.8
1664.86	10059.8
1665.35	10059.8
1665.85	10059.8
1666.34	10052.8
1666.83	9922.61
1667.32	9443.93
1667.81	9168.3
1668.31	9168.3
1668.8	9168.3
1669.29	9168.3
1669.78	9168.3
1670.28	9168.3
1670.77	9168.3
1671.26	9168.3
1671.75	9168.3
1672.24	9168.3
1672.74	9168.3
1673.23	9168.3
1673.72	9168.3
1674.21	9168.3
1674.7	9168.3
1675.2	9168.3
1675.69	9168.3
1676.18	9168.3
1676.67	9168.3
1677.17	9168.3
1677.66	9168.3
1678.15	9168.3
1678.64	9168.3
1679.13	9168.04
1679.63	9140.09
1680.12	8688.15
1680.61	7135.76
1681.1	7135.76
1681.59	7135.76
1682.09	7135.76
1682.58	7135.76
1683.07	7135.76
1683.56	7135.76
1684.06	7135.76
1684.55	7135.76
1685.04	7135.76
1685.53	7135.76
1686.02	7135.76
1686.52	7135.76
1687.01	7135.76
1687.5	7135.76
1687.99	7135.76
1688.48	7135.76
1688.98	7135.76
1689.47	7135.76
1689.96	7135.76
1690.45	7135.76
1690.94	7135.76
1691.44	7135.76
1691.93	7135.76
1692.42	7135.76
1692.91	7061.12
1693.41	5976.63
1693.9	5406.31
1694.39	5326.34
1694.88	5326.34
1695.37	5326.34
1695.87	5326.34
1696.36	5326.34
1696.85	5326.34
1697.34	5326.34
1697.83	5326.34
1698.33	5326.34
1698.82	5326.34
1699.31	5326.34
1699.8	5326.34
1700.3	5326.34
1700.79	5326.34
1701.28	5326.34
1701.77	5326.34
1702.26	5326.34
1702.76	5326.34
1703.25	5326.34
1703.74	5326.34
1704.23	5326.34
1704.72	5326.34
1705.22	5326.34
1705.71	5301
1706.2	4882.25
1706.69	3954.94
1707.19	3512.53
1707.68	3512.53
1708.17	3512.53
1708.66	3512.53
1709.15	3512.53
1709.65	3512.53
1710.14	3512.53
1710.63	3512.53
1711.12	3512.53
1711.61	3512.53
1712.11	3512.53
1712.6	3512.53
1713.09	3512.53
1713.58	3512.53
1714.07	3512.53
1714.57	3512.53
1715.06	3512.53
1715.55	3512.53
1716.04	3512.53
1716.54	3512.53
1717.03	3512.53
1717.52	3512.53
1718.01	3512.53
1718.5	3512.53
1719	3417.17
1719.49	1934.01
1719.98	-167.836
1720.47	-364.562
1720.96	-364.562
1721.46	-364.562
1721.95	-364.562
1722.44	-364.562
1722.93	-364.562
1723.43	-364.562
1723.92	-364.562
1724.41	-364.562
1724.9	-364.562
1725.39	-364.562
1725.89	-364.562
1726.38	-364.562
1726.87	-364.562
1727.36	-364.562
1727.85	-364.562
1728.35	-364.562
1728.84	-364.562
1729.33	-364.562
1729.82	-364.562
1730.32	-364.562
1730.81	-364.562
1731.3	-364.562
1731.79	-400.295
1732.28	-1098.36
1732.78	-4042.98
1733.27	-6398.72
1733.76	-6398.72
1734.25	-6398.72
1734.74	-6398.72
1735.24	-6398.72
1735.73	-6398.72
1736.22	-6398.72
1736.71	-6398.72
1737.2	-6398.72
1737.7	-6398.72
1738.19	-6398.72
1738.68	-6398.72
1739.17	-6398.72
1739.67	-6398.72
1740.16	-6398.72
1740.65	-6398.72
1741.14	-6398.72
1741.63	-6398.72
1742.13	-6398.72
1742.62	-6398.72
1743.11	-6398.72
1743.6	-6398.72
1744.09	-6398.72
1744.59	-6398.72
1745.08	-6420.96
1745.57	-6998.63
1746.06	-10721.8
1746.56	-10965.1
1747.05	-10965.1
1747.54	-10965.1
1748.03	-10965.1
1748.52	-10965.1
1749.02	-10965.1
1749.51	-10965.1
1750	-10965.1
1750.49	-10965.1
1750.98	-10965.1
1751.48	-10965.1
1751.97	-10965.1
1752.46	-10965.1
1752.95	-10965.1
1753.44	-10965.1
1753.94	-10965.1
1754.43	-10965.1
1754.92	-10965.1
1755.41	-10965.1
1755.91	-10965.1
1756.4	-10965.1
1756.89	-10965.1
1757.38	-10965.1
1757.87	-10965.1
1758.37	-11021.6
1758.86	-11865.8
1759.35	-12624
1759.84	-12810.8
1760.33	-12810.8
1760.83	-12810.8
1761.32	-12810.8
1761.81	-12810.8
1762.3	-12810.8
1762.8	-12810.8
1763.29	-12810.8
1763.78	-12810.8
1764.27	-12810.8
1764.76	-12810.8
1765.26	-12810.8
1765.75	-12810.8
1766.24	-12810.8
1766.73	-12810.8
1767.22	-12810.8
1767.72	-12810.8
1768.21	-12810.8
1768.7	-12810.8
1769.19	-12810.8
1769.69	-12810.8
1770.18	-12810.8
1770.67	-12810.8
1771.16	-12837.7
1771.65	-13328.5
1772.15	-15042.7
1772.64	-16553.4
1773.13	-16553.4
1773.62	-16553.4
1774.11	-16553.4
1774.61	-16553.4
1775.1	-16553.4
1775.59	-16553.4
1776.08	-16553.4
1776.57	-16553.4
1777.07	-16553.4
1777.56	-16553.4
1778.05	-16553.4
1778.54	-16553.4
1779.04	-16553.4
1779.53	-16553.4
1780.02	-16553.4
1780.51	-16553.4
1781	-16553.4
1781.5	-16553.4
1781.99	-16553.4
1782.48	-16553.4
1782.97	-16553.4
1783.46	-16553.4
1783.96	-16553.4
1784.45	-16615.7
1784.94	-17794.5
1785.43	-22131.8
1785.93	-23069.6
1786.42	-23069.6
1786.91	-23069.6
1787.4	-23069.6
1787.89	-23069.6
1788.39	-23069.6
1788.88	-23069.6
1789.37	-23069.6
1789.86	-23069.6
1790.35	-23069.6
1790.85	-23069.6
1791.34	-23069.6
1791.83	-23069.6
1792.32	-23069.6
1792.82	-23069.6
1793.31	-23069.6
1793.8	-23069.6
1794.29	-23069.6
1794.78	-23069.6
1795.28	-23069.6
1795.77	-23069.6
1796.26	-23069.6
1796.75	-23069.6
1797.24	-23069.6
1797.74	-23096.5
1798.23	-23517.2
1798.72	-24135.1
1799.21	-24202.8
1799.7	-24202.8
1800.2	-24202.8
1800.69	-24202.8
1801.18	-24202.8
1801.67	-24202.8
1802.17	-24202.8
1802.66	-24202.8
1803.15	-24202.8
1803.64	-24202.8
1804.13	-24202.8
1804.63	-24202.8
1805.12	-24202.8
1805.61	-24202.8
1806.1	-24202.8
1806.59	-24202.8
1807.09	-24202.8
1807.58	-24202.8
1808.07	-24202.8
1808.56	-24202.8
1809.06	-24202.8
1809.55	-24202.8
1810.04	-24202.8
1810.53	-24202.8
1811.02	-23943.8
1811.52	-20153.7
1812.01	-17801.3
1812.5	-17719.8
1812.99	-17719.8
1813.48	-17719.8
1813.98	-17719.8
1814.47	-17719.8
1814.96	-17719.8
1815.45	-17719.8
1815.94	-17719.8
1816.44	-17719.8
1816.93	-17719.8
1817.42	-17719.8
1817.91	-17719.8
1818.41	-17719.8
1818.9	-17719.8
1819.39	-17719.8
1819.88	-17719.8
1820.37	-17719.8
1820.87	-17719.8
1821.36	-17719.8
1821.85	-17719.8
1822.34	-17719.8
1822.83	-17719.8
1823.33	-17719.8
1823.82	-17680.2
1824.31	-17010.3
1824.8	-15335.9
1825.3	-14368.3
1825.79	-14368.3
1826.28	-14368.3
1826.77	-14368.3
1827.26	-14368.3
1827.76	-14368.3
1828.25	-14368.3
1828.74	-14368.3
1829.23	-14368.3
1829.72	-14368.3
1830.22	-14368.3
1830.71	-14368.3
1831.2	-14368.3
1831.69	-14368.3
1832.19	-14368.3
1832.68	-14368.3
1833.17	-14368.3
1833.66	-14368.3
1834.15	-14368.3
1834.65	-14368.3
1835.14	-14368.3
1835.63	-14368.3
1836.12	-14368.3
1836.61	-14368.4
1837.11	-14377.4
1837.6	-14545.8
1838.09	-15273.2
1838.58	-15273.2
1839.07	-15273.2
1839.57	-15273.2
1840.06	-15273.2
1840.55	-15273.2
1841.04	-15273.2
1841.54	-15273.2
1842.03	-15273.2
1842.52	-15273.2
1843.01	-15273.2
1843.5	-15273.2
1844	-15273.2
1844.49	-15273.2
1844.98	-15273.2
1845.47	-15273.2
1845.96	-15273.2
1846.46	-15273.2
1846.95	-15273.2
1847.44	-15273.2
1847.93	-15273.2
1848.43	-15273.2
1848.92	-15273.2
1849.41	-15273.2
1849.9	-15273.2
1850.39	-14895.5
1850.89	-9295.63
1851.38	-4802.07
1851.87	-3806.59
1852.36	-3806.59
1852.85	-3806.59
1853.35	-3806.59
1853.84	-3806.59
1854.33	-3806.59
1854.82	-3806.59
1855.31	-3806.59
1855.81	-3806.59
1856.3	-3806.59
1856.79	-3806.59
1857.28	-3806.59
1857.78	-3806.59
1858.27	-3806.59
1858.76	-3806.59
1859.25	-3806.59
1859.74	-3806.59
1860.24	-3806.59
1860.73	-3806.59
1861.22	-3806.59
1861.71	-3806.59
1862.2	-3806.59
1862.7	-3806.59
1863.19	-3632.26
1863.68	-494.09
1864.17	9977.14
1864.67	20233.2
1865.16	20233.2
1865.65	20233.2
1866.14	20233.2
1866.63	20233.2
1867.13	20233.2
1867.62	20233.2
1868.11	20233.2
1868.6	20233.2
1869.09	20233.2
1869.59	20233.2
1870.08	20233.2
1870.57	20233.2
1871.06	20233.2
1871.56	20233.2
1872.05	20233.2
1872.54	20233.2
1873.03	20233.2
1873.52	20233.2
1874.02	20233.2
1874.51	20233.2
1875	20233.2
1875.49	20233.2
1875.98	20233.2
1876.48	20248.6
1876.97	21146.3
1877.46	30794
1877.95	32223.7
1878.45	32223.7
1878.94	32223.7
1879.43	32223.7
1879.92	32223.7
1880.41	32223.7
1880.91	32223.7
1881.4	32223.7
1881.89	32223.7
1882.38	32223.7
1882.87	32223.7
1883.37	32223.7
1883.86	32223.7
1884.35	32223.7
1884.84	32223.7
1885.33	32223.7
1885.83	32223.7
1886.32	32223.7
1886.81	32223.7
1887.3	32223.7
1887.8	32223.7
1888.29	32223.7
1888.78	32223.7
1889.27	32223.7
1889.76	32280.5
1890.26	33170.2
1890.75	34535.4
1891.24	35014.9
1891.73	35014.9
1892.22	35014.9
1892.72	35014.9
1893.21	35014.9
1893.7	35014.9
1894.19	35014.9
1894.69	35014.9
1895.18	35014.9
1895.67	35014.9
1896.16	35014.9
1896.65	35014.9
1897.15	35014.9
1897.64	35014.9
1898.13	35014.9
1898.62	35014.9
1899.11	35014.9
1899.61	35014.9
1900.1	35014.9
1900.59	35014.9
1901.08	35014.9
1901.57	35014.9
1902.07	35014.9
1902.56	35039.5
1903.05	36051.9
1903.54	46745.3
1904.04	66486.5
1904.53	66486.5
1905.02	66486.5
1905.51	66486.5
1906	66486.5
1906.5	66486.5
1906.99	66486.5
1907.48	66486.5
1907.97	66486.5
1908.46	66486.5
1908.96	66486.5
1909.45	66486.5
1909.94	66486.5
1910.43	66486.5
1910.93	66486.5
1911.42	66486.5
1911.91	66486.5
1912.4	66486.5
1912.89	66486.5
1913.39	66486.5
1913.88	66486.5
1914.37	66486.5
1914.86	66486.5
1915.35	66486.5
1915.85	66486.5
1916.34	68242.8
1916.83	94044.5
1917.32	111536
1917.82	112536
1918.31	112536
1918.8	112536
1919.29	112536
1919.78	112536
1920.28	112536
1920.77	112536
1921.26	112536
1921.75	112536
1922.24	112536
1922.74	112536
1923.23	112536
1923.72	112536
1924.21	112536
1924.7	112536
1925.2	112536
1925.69	112536
1926.18	112536
1926.67	112536
1927.17	112536
1927.66	112536
1928.15	112536
1928.64	112536
1929.13	112345
1929.63	108725
1930.12	94776.2
1930.61	85749.2
1931.1	85749.2
1931.59	85749.2
1932.09	85749.2
1932.58	85749.2
1933.07	85749.2
1933.56	85749.2
1934.06	85749.2
1934.55	85749.2
1935.04	85749.2
1935.53	85749.2
1936.02	85749.2
1936.52	85749.2
1937.01	85749.2
1937.5	85749.2
1937.99	85749.2
1938.48	85749.2
1938.98	85749.2
1939.47	85749.2
1939.96	85749.2
1940.45	85749.2
1940.95	85749.2
1941.44	85749.2
1941.93	85749.2
1942.42	84641.1
1942.91	63728.2
1943.41	-15065.5
1943.9	-38311.2
1944.39	-38311.2
1944.88	-38311.2
1945.37	-38311.2
1945.87	-38311.2
1946.36	-38311.2
1946.85	-38311.2
1947.34	-38311.2
1947.83	-38311.2
1948.33	-38311.2
1948.82	-38311.2
1949.31	-38311.2
1949.8	-38311.2
1950.3	-38311.2
1950.79	-38311.2
1951.28	-38311.2
1951.77	-38311.2
1952.26	-38311.2
1952.76	-38311.2
1953.25	-38311.2
1953.74	-38311.2
1954.23	-38311.2
1954.72	-38311.2
1955.22	-39925.9
1955.71	-66256.3
1956.2	-120220
1956.69	-142893
1957.19	-142893
1957.68	-142893
1958.17	-142893
1958.66	-142893
1959.15	-142893
1959.65	-142893
1960.14	-142893
1960.63	-142893
1961.12	-142893
1961.61	-142893
1962.11	-142893
1962.6	-142893
1963.09	-142893
1963.58	-142893
1964.07	-142893
1964.57	-142893
1965.06	-142893
1965.55	-142893
1966.04	-142893
1966.54	-142893
1967.03	-142893
1967.52	-142893
1968.01	-142195
1968.5	-131830
1969	-123413
1969.49	-122921
1969.98	-122921
1970.47	-122921
1970.96	-122921
1971.46	-122921
1971.95	-122921
1972.44	-122921
1972.93	-122921
1973.43	-122921
1973.92	-122921
1974.41	-122921
1974.9	-122921
1975.39	-122921
1975.89	-122921
1976.38	-122921
1976.87	-122921
1977.36	-122921
1977.85	-122921
1978.35	-122921
1978.84	-122921
1979.33	-122921
1979.82	-122921
1980.32	-121600
1980.81	-100280
1981.3	-58830.7
1981.79	-37446.7
1982.28	-37446.7
1982.78	-37446.7
1983.27	-37446.7
1983.76	-37446.7
1984.25	-37446.7
1984.74	-37446.7
1985.24	-37446.7
1985.73	-37446.7
1986.22	-37446.7
1986.71	-37446.7
1987.2	-37446.7
1987.7	-37446.7
1988.19	-37446.7
1988.68	-37446.7
1989.17	-37446.7
1989.67	-37446.7
1990.16	-37446.7
1990.65	-37446.7
1991.14	-37446.7
1991.63	-37446.7
1992.13	-37446.7
1992.62	-37446.7
1993.11	-37126.8
1993.6	-30679.9
1994.09	-2888.26
1994.59	224.598
1995.08	224.598
1995.57	224.598
1996.06	224.598
1996.56	224.598
1997.05	224.598
1997.54	224.598
1998.03	224.598
1998.52	224.598
1999.02	224.598
1999.51	224.598
2000	224.598
2000.49	224.598
2000.98	224.598
2001.48	224.598
2001.97	224.598
2002.46	224.598
2002.95	224.598
2003.44	224.598
2003.94	224.598
2004.43	224.598
2004.92	224.598
2005.41	224.598
2005.91	228.034
2006.4	309.397
2006.89	784.612
2007.38	953.438
2007.87	953.438
2008.37	953.438
2008.86	953.438
2009.35	953.438
2009.84	953.438
2010.33	953.438
2010.83	953.438
2011.32	953.438
2011.81	953.438
2012.3	953.438
2012.8	953.438
2013.29	953.438
2013.78	953.438
2014.27	953.438
2014.76	953.438
2015.26	953.438
2015.75	953.438
2016.24	953.438
2016.73	953.438
2017.22	953.438
2017.72	953.438
2018.21	953.438
2018.7	1369.93
2019.19	8372.26
2019.69	26154.2
2020.18	37286.2
2020.67	37286.2
2021.16	37286.2
2021.65	37286.2
2022.15	37286.2
2022.64	37286.2
2023.13	37286.2
2023.62	37286.2
2024.11	37286.2
2024.61	37286.2
2025.1	37286.2
2025.59	37286.2
2026.08	37286.2
2026.57	37286.2
2027.07	37286.2
2027.56	37286.2
2028.05	37286.2
2028.54	37286.2
2029.04	37286.2
2029.53	37286.2
2030.02	37286.2
2030.51	37286.2
2031	37286.2
2031.5	37286.2
2031.99	38428
2032.48	55977.8
2032.97	78321.4
2033.46	80767.7
2033.96	80767.7
2034.45	80767.7
2034.94	80767.7
2035.43	80767.7
2035.93	80767.7
2036.42	80767.7
2036.91	80767.7
2037.4	80767.7
2037.89	80767.7
2038.39	80767.7
2038.88	80767.7
2039.37	80767.7
2039.86	80767.7
2040.35	80767.7
2040.85	80767.7
2041.34	80767.7
2041.83	80767.7
2042.32	80767.7
2042.82	80767.7
2043.31	80767.7
2043.8	80767.7
2044.29	80767.7
2044.78	80345.4
2045.28	73467.3
2045.77	59288.6
2046.26	51057.3
2046.75	51057.3
2047.24	51057.3
2047.74	51057.3
2048.23	51057.3
2048.72	51057.3
2049.21	51057.3
2049.7	51057.3
2050.2	51057.3
2050.69	51057.3
2051.18	51057.3
2051.67	51057.3
2052.17	51057.3
2052.66	51057.3
2053.15	51057.3
2053.64	51057.3
2054.13	51057.3
2054.63	51057.3
2055.12	51057.3
2055.61	51057.3
2056.1	51057.3
2056.59	51057.3
2057.09	51057.3
2057.58	50880.7
2058.07	46116.8
2058.56	11409
2059.06	-28081
2059.55	-28081
2060.04	-28081
2060.53	-28081
2061.02	-28081
2061.52	-28081
2062.01	-28081
2062.5	-28081
2062.99	-28081
2063.48	-28081
2063.98	-28081
2064.47	-28081
2064.96	-28081
2065.45	-28081
2065.94	-28081
2066.44	-28081
2066.93	-28081
2067.42	-28081
2067.91	-28081
2068.41	-28081
2068.9	-28081
2069.39	-28081
2069.88	-28081
2070.37	-28081
2070.87	-29225.8
2071.36	-46270.3
2071.85	-60935.3
2072.34	-64353.1
2072.83	-64353.1
2073.33	-64353.1
2073.82	-64353.1
2074.31	-64353.1
2074.8	-64353.1
2075.3	-64353.1
2075.79	-64353.1
2076.28	-64353.1
2076.77	-64353.1
2077.26	-64353.1
2077.76	-64353.1
2078.25	-64353.1
2078.74	-64353.1
2079.23	-64353.1
2079.72	-64353.1
2080.22	-64353.1
2080.71	-64353.1
2081.2	-64353.1
2081.69	-64353.1
2082.19	-64353.1
2082.68	-64353.1
2083.17	-64347.3
2083.66	-63958.7
2084.15	-58774.1
2084.65	-46303.2
2085.14	-46303.2
2085.63	-46303.2
2086.12	-46303.2
2086.61	-46303.2
2087.11	-46303.2
2087.6	-46303.2
2088.09	-46303.2
2088.58	-46303.2
2089.07	-46303.2
2089.57	-46303.2
2090.06	-46303.2
2090.55	-46303.2
2091.04	-46303.2
2091.54	-46303.2
2092.03	-46303.2
2092.52	-46303.2
2093.01	-46303.2
2093.5	-46303.2
2094	-46303.2
2094.49	-46303.2
2094.98	-46303.2
2095.47	-46303.2
2095.96	-46303.2
2096.46	-46029.2
2096.95	-41671.5
2097.44	-34229.3
2097.93	-32864.3
2098.43	-32864.3
2098.92	-32864.3
2099.41	-32864.3
2099.9	-32864.3
2100.39	-32864.3
2100.89	-32864.3
2101.38	-32864.3
2101.87	-32864.3
2102.36	-32864.3
2102.85	-32864.3
2103.35	-32864.3
2103.84	-32864.3
2104.33	-32864.3
2104.82	-32864.3
2105.31	-32864.3
2105.81	-32864.3
2106.3	-32864.3
2106.79	-32864.3
2107.28	-32864.3
2107.78	-32864.3
2108.27	-32864.3
2108.76	-32864.3
2109.25	-32875
2109.74	-33072.5
2110.24	-33794.8
2110.73	-34470.6
2111.22	-34470.6
2111.71	-34470.6
2112.2	-34470.6
2112.7	-34470.6
2113.19	-34470.6
2113.68	-34470.6
2114.17	-34470.6
2114.67	-34470.6
2115.16	-34470.6
2115.65	-34470.6
2116.14	-34470.6
2116.63	-34470.6
2117.13	-34470.6
2117.62	-34470.6
2118.11	-34470.6
2118.6	-34470.6
2119.09	-34470.6
2119.59	-34470.6
2120.08	-34470.6
2120.57	-34470.6
2121.06	-34470.6
2121.56	-34470.6
2122.05	-34458.5
2122.54	-33402.7
2123.03	-20527.7
2123.52	-13970.7
2124.02	-13954.6
2124.51	-13954.6
2125	-13954.6
2125.49	-13954.6
2125.98	-13954.6
2126.48	-13954.6
2126.97	-13954.6
2127.46	-13954.6
2127.95	-13954.6
2128.44	-13954.6
2128.94	-13954.6
2129.43	-13954.6
2129.92	-13954.6
2130.41	-13954.6
2130.91	-13954.6
2131.4	-13954.6
2131.89	-13954.6
2132.38	-13954.6
2132.87	-13954.6
2133.37	-13954.6
2133.86	-13954.6
2134.35	-13954.6
2134.84	-13954.6
2135.33	-12384.3
2135.83	10812.2
2136.32	28295.4
2136.81	30143.2
2137.3	30143.2
2137.8	30143.2
2138.29	30143.2
2138.78	30143.2
2139.27	30143.2
2139.76	30143.2
2140.26	30143.2
2140.75	30143.2
2141.24	30143.2
2141.73	30143.2
2142.22	30143.2
2142.72	30143.2
2143.21	30143.2
2143.7	30143.2
2144.19	30143.2
2144.69	30143.2
2145.18	30143.2
2145.67	30143.2
2146.16	30143.2
2146.65	30143.2
2147.15	30143.2
2147.64	30143.2
2148.13	30428.2
2148.62	35851.9
2149.11	56704.6
2149.61	67339.2
2150.1	67339.2
2150.59	67339.2
2151.08	67339.2
2151.57	67339.2
2152.07	67339.2
2152.56	67339.2
2153.05	67339.2
2153.54	67339.2
2154.04	67339.2
2154.53	67339.2
2155.02	67339.2
2155.51	67339.2
2156	67339.2
2156.5	67339.2
2156.99	67339.2
2157.48	67339.2
2157.97	67339.2
2158.46	67339.2
2158.96	67339.2
2159.45	67339.2
2159.94	67339.2
2160.43	67339.2
2160.93	67339.2
2161.42	67748
2161.91	74064.3
2162.4	83120.9
2162.89	85510.4
2163.39	85510.4
2163.88	85510.4
2164.37	85510.4
2164.86	85510.4
2165.35	85510.4
2165.85	85510.4
2166.34	85510.4
2166.83	85510.4
2167.32	85510.4
2167.81	85510.4
2168.31	85510.4
2168.8	85510.4
2169.29	85510.4
2169.78	85510.4
2170.28	85510.4
2170.77	85510.4
2171.26	85510.4
2171.75	85510.4
2172.24	85510.4
2172.74	85510.4
2173.23	85510.4
2173.72	85510.4
2174.21	85410
2174.7	83784.9
2175.2	80623.7
2175.69	79666.1
2176.18	79666.1
2176.67	79666.1
2177.17	79666.1
2177.66	79666.1
2178.15	79666.1
2178.64	79666.1
2179.13	79666.1
2179.63	79666.1
2180.12	79666.1
2180.61	79666.1
2181.1	79666.1
2181.59	79666.1
2182.09	79666.1
2182.58	79666.1
2183.07	79666.1
2183.56	79666.1
2184.06	79666.1
2184.55	79666.1
2185.04	79666.1
2185.53	79666.1
2186.02	79666.1
2186.52	79666.1
2187.01	79666.1
2187.5	78165.7
2187.99	56022.2
2188.48	39754.2
2188.98	38433.1
2189.47	38433.1
2189.96	38433.1
2190.45	38433.1
2190.95	38433.1
2191.44	38433.1
2191.93	38433.1
2192.42	38433.1
2192.91	38433.1
2193.41	38433.1
2193.9	38433.1
2194.39	38433.1
2194.88	38433.1
2195.37	38433.1
2195.87	38433.1
2196.36	38433.1
2196.85	38433.1
2197.34	38433.1
2197.83	38433.1
2198.33	38433.1
2198.82	38433.1
2199.31	38433.1
2199.8	38402.3
2200.3	35988.7
2200.79	6423.06
2201.28	-19072.1
2201.77	-19072.1
2202.26	-19072.1
2202.76	-19072.1
2203.25	-19072.1
2203.74	-19072.1
2204.23	-19072.1
2204.72	-19072.1
2205.22	-19072.1
2205.71	-19072.1
2206.2	-19072.1
2206.69	-19072.1
2207.19	-19072.1
2207.68	-19072.1
2208.17	-19072.1
2208.66	-19072.1
2209.15	-19072.1
2209.65	-19072.1
2210.14	-19072.1
2210.63	-19072.1
2211.12	-19072.1
2211.61	-19072.1
2212.11	-19094.2
2212.6	-19752.3
2213.09	-26168.1
2213.58	-47633.5
2214.07	-47633.5
2214.57	-47633.5
2215.06	-47633.5
2215.55	-47633.5
2216.04	-47633.5
2216.54	-47633.5
2217.03	-47633.5
2217.52	-47633.5
2218.01	-47633.5
2218.5	-47633.5
2219	-47633.5
2219.49	-47633.5
2219.98	-47633.5
2220.47	-47633.5
2220.96	-47633.5
2221.46	-47633.5
2221.95	-47633.5
2222.44	-47633.5
2222.93	-47633.5
2223.43	-47633.5
2223.92	-47633.5
2224.41	-47633.5
2224.9	-47590.9
2225.39	-46648.6
2225.89	-41695.1
2226.38	-39880.5
2226.87	-39880.5
2227.36	-39880.5
2227.85	-39880.5
2228.35	-39880.5
2228.84	-39880.5
2229.33	-39880.5
2229.82	-39880.5
2230.32	-39880.5
2230.81	-39880.5
2231.3	-39880.5
2231.79	-39880.5
2232.28	-39880.5
2232.78	-39880.5
2233.27	-39880.5
2233.76	-39880.5
2234.25	-39880.5
2234.74	-39880.5
2235.24	-39880.5
2235.73	-39880.5
2236.22	-39880.5
2236.71	-39880.5
2237.2	-39859.7
2237.7	-39318.1
2238.19	-35387.2
2238.68	-29141.9
2239.17	-29141.9
2239.67	-29141.9
2240.16	-29141.9
2240.65	-29141.9
2241.14	-29141.9
2241.63	-29141.9
2242.13	-29141.9
2242.62	-29141.9
2243.11	-29141.9
2243.6	-29141.9
2244.09	-29141.9
2244.59	-29141.9
2245.08	-29141.9
2245.57	-29141.9
2246.06	-29141.9
2246.56	-29141.9
2247.05	-29141.9
2247.54	-29141.9
2248.03	-29141.9
2248.52	-29141.9
2249.02	-29141.9
2249.51	-29141.9
2250	-29030.1
2250.49	-27306.2
2250.98	-24909.7
2251.48	-24705.2
2251.97	-24705.2
2252.46	-24705.2
2252.95	-24705.2
2253.45	-24705.2
2253.94	-24705.2
2254.43	-24705.2
2254.92	-24705.2
2255.41	-24705.2
2255.91	-24705.2
2256.4	-24705.2
2256.89	-24705.2
2257.38	-24705.2
2257.87	-24705.2
2258.37	-24705.2
2258.86	-24705.2
2259.35	-24705.2
2259.84	-24705.2
2260.33	-24705.2
2260.83	-24705.2
2261.32	-24705.2
2261.81	-24705.2
2262.3	-24227.2
2262.8	-16995.6
2263.29	-8597.82
2263.78	-6335.23
2264.27	-6335.23
2264.76	-6335.23
2265.26	-6335.23
2265.75	-6335.23
2266.24	-6335.23
2266.73	-6335.23
2267.22	-6335.23
2267.72	-6335.23
2268.21	-6335.23
2268.7	-6335.23
2269.19	-6335.23
2269.69	-6335.23
2270.18	-6335.23
2270.67	-6335.23
2271.16	-6335.23
2271.65	-6335.23
2272.15	-6335.23
2272.64	-6335.23
2273.13	-6335.23
2273.62	-6335.23
2274.11	-6335.23
2274.61	-6150.6
2275.1	-2331.73
2275.59	15662.2
2276.08	22171.3
2276.57	22171.3
2277.07	22171.3
2277.56	22171.3
2278.05	22171.3
2278.54	22171.3
2279.04	22171.3
2279.53	22171.3
2280.02	22171.3
2280.51	22171.3
2281	22171.3
2281.5	22171.3
2281.99	22171.3
2282.48	22171.3
2282.97	22171.3
2283.46	22171.3
2283.96	22171.3
2284.45	22171.3
2284.94	22171.3
2285.43	22171.3
2285.93	22171.3
2286.42	22171.3
2286.91	22171.3
2287.4	22514.8
2287.89	27616.3
2288.39	31830.3
2288.88	32775.1
2289.37	32775.1
2289.86	32775.1
2290.35	32775.1
2290.85	32775.1
2291.34	32775.1
2291.83	32775.1
2292.32	32775.1
2292.82	32775.1
2293.31	32775.1
2293.8	32775.1
2294.29	32775.1
2294.78	32775.1
2295.28	32775.1
2295.77	32775.1
2296.26	32775.1
2296.75	32775.1
2297.24	32775.1
2297.74	32775.1
2298.23	32775.1
2298.72	32775.1
2299.21	32775.1
2299.7	32550
2300.2	28803.4
2300.69	20131.5
2301.18	15697.4
2301.67	15697.4
2302.17	15697.4
2302.66	15697.4
2303.15	15697.4
2303.64	15697.4
2304.13	15697.4
2304.63	15697.4
2305.12	15697.4
2305.61	15697.4
2306.1	15697.4
2306.59	15697.4
2307.09	15697.4
2307.58	15697.4
2308.07	15697.4
2308.56	15697.4
2309.06	15697.4
2309.55	15697.4
2310.04	15697.4
2310.53	15697.4
2311.02	15697.4
2311.52	15697.4
2312.01	15697.4
2312.5	15037
2312.99	4239.14
2313.48	-17778.3
2313.98	-19679.6
2314.47	-19679.6
2314.96	-19679.6
2315.45	-19679.6
2315.95	-19679.6
2316.44	-19679.6
2316.93	-19679.6
2317.42	-19679.6
2317.91	-19679.6
2318.41	-19679.6
2318.9	-19679.6
2319.39	-19679.6
2319.88	-19679.6
2320.37	-19679.6
2320.87	-19679.6
2321.36	-19679.6
2321.85	-19679.6
2322.34	-19679.6
2322.83	-19679.6
2323.33	-19679.6
2323.82	-19679.6
2324.31	-19679.6
2324.8	-19782.4
2325.3	-22645.6
2325.79	-43831.3
2326.28	-61237.8
2326.77	-61237.8
2327.26	-61237.8
2327.76	-61237.8
2328.25	-61237.8
2328.74	-61237.8
2329.23	-61237.8
2329.72	-61237.8
2330.22	-61237.8
2330.71	-61237.8
2331.2	-61237.8
2331.69	-61237.8
2332.19	-61237.8
2332.68	-61237.8
2333.17	-61237.8
2333.66	-61237.8
2334.15	-61237.8
2334.65	-61237.8
2335.14	-61237.8
2335.63	-61237.8
2336.12	-61237.8
2336.61	-61237.8
2337.11	-61237.8
2337.6	-61375.8
2338.09	-64386.1
2338.58	-79898.3
2339.07	-85496.4
2339.57	-85496.4
2340.06	-85496.4
2340.55	-85496.4
2341.04	-85496.4
2341.54	-85496.4
2342.03	-85496.4
2342.52	-85496.4
2343.01	-85496.4
2343.5	-85496.4
2344	-85496.4
2344.49	-85496.4
2344.98	-85496.4
2345.47	-85496.4
2345.96	-85496.4
2346.46	-85496.4
2346.95	-85496.4
2347.44	-85496.4
2347.93	-85496.4
2348.43	-85496.4
2348.92	-85496.4
2349.41	-85496.4
2349.9	-85496.4
2350.39	-85326.6
2350.89	-82451.1
2351.38	-75294.3
2351.87	-72725.3
2352.36	-72725.3
2352.85	-72725.3
2353.35	-72725.3
2353.84	-72725.3
2354.33	-72725.3
2354.82	-72725.3
2355.31	-72725.3
2355.81	-72725.3
2356.3	-72725.3
2356.79	-72725.3
2357.28	-72725.3
2357.78	-72725.3
2358.27	-72725.3
2358.76	-72725.3
2359.25	-72725.3
2359.74	-72725.3
2360.24	-72725.3
2360.73	-72725.3
2361.22	-72725.3
2361.71	-72725.3
2362.2	-72725.3
2362.7	-72725.3
2363.19	-72417.7
2363.68	-67147.8
2364.17	-52497.8
2364.67	-42424.7
2365.16	-42424.7
2365.65	-42424.7
2366.14	-42424.7
2366.63	-42424.7
2367.13	-42424.7
2367.62	-42424.7
2368.11	-42424.7
2368.6	-42424.7
2369.09	-42424.7
2369.59	-42424.7
2370.08	-42424.7
2370.57	-42424.7
2371.06	-42424.7
2371.56	-42424.7
2372.05	-42424.7
2372.54	-42424.7
2373.03	-42424.7
2373.52	-42424.7
2374.02	-42424.7
2374.51	-42424.7
2375	-42424.7
2375.49	-42424.7
2375.98	-42424.7
2376.48	-42151
2376.97	-37476.6
2377.46	-25490.4
2377.95	-23787.8
2378.44	-23787.8
2378.94	-23787.8
2379.43	-23787.8
2379.92	-23787.8
2380.41	-23787.8
2380.91	-23787.8
2381.4	-23787.8
2381.89	-23787.8
2382.38	-23787.8
2382.87	-23787.8
2383.37	-23787.8
2383.86	-23787.8
2384.35	-23787.8
2384.84	-23787.8
2385.33	-23787.8
2385.83	-23787.8
2386.32	-23787.8
2386.81	-23787.8
2387.3	-23787.8
2387.8	-23787.8
2388.29	-23787.8
2388.78	-23787.8
2389.27	-23787.8
2389.76	-23198
2390.26	-14078.2
2390.75	-1736.74
2391.24	1105.44
2391.73	1105.44
2392.22	1105.44
2392.72	1105.44
2393.21	1105.44
2393.7	1105.44
2394.19	1105.44
2394.69	1105.44
2395.18	1105.44
2395.67	1105.44
2396.16	1105.44
2396.65	1105.44
2397.15	1105.44
2397.64	1105.44
2398.13	1105.44
2398.62	1105.44
2399.11	1105.44
2399.61	1105.44
2400.1	1105.44
2400.59	1105.44
2401.08	1105.44
2401.57	1105.44
2402.07	1105.44
2402.56	1105.44
2403.05	1162.96
2403.54	4585.94
2404.04	42493.8
2404.53	60641.5
2405.02	60641.5
2405.51	60641.5
2406	60641.5
2406.5	60641.5
2406.99	60641.5
2407.48	60641.5
2407.97	60641.5
2408.46	60641.5
2408.96	60641.5
2409.45	60641.5
2409.94	60641.5
2410.43	60641.5
2410.93	60641.5
2411.42	60641.5
2411.91	60641.5
2412.4	60641.5
2412.89	60641.5
2413.39	60641.5
2413.88	60641.5
2414.37	60641.5
2414.86	60641.5
2415.35	60641.5
2415.85	60641.5
2416.34	60641.5
2416.83	62457.7
2417.32	89711.8
2417.81	116000
2418.31	122085
2418.8	122085
2419.29	122085
2419.78	122085
2420.28	122085
2420.77	122085
2421.26	122085
2421.75	122085
2422.24	122085
2422.74	122085
2423.23	122085
2423.72	122085
2424.21	122085
2424.7	122085
2425.2	122085
2425.69	122085
2426.18	122085
2426.67	122085
2427.17	122085
2427.66	122085
2428.15	122085
2428.64	122085
2429.13	122085
2429.63	122085
2430.12	122085
2430.61	122113
2431.1	122714
2431.59	125986
2432.09	130229
2432.58	130229
2433.07	130229
2433.56	130229
2434.06	130229
2434.55	130229
2435.04	130229
2435.53	130229
2436.02	130229
2436.52	130229
2437.01	130229
2437.5	130229
2437.99	130229
2438.48	130229
2438.98	130229
2439.47	130229
2439.96	130229
2440.45	130229
2440.94	130229
2441.44	130229
2441.93	130229
2442.42	130229
2442.91	130229
2443.41	130229
2443.9	130229
2444.39	130229
2444.88	129027
2445.37	111108
2445.87	95360.4
2446.36	91533.5
2446.85	91533.5
2447.34	91533.5
2447.83	91533.5
2448.33	91533.5
2448.82	91533.5
2449.31	91533.5
2449.8	91533.5
2450.3	91533.5
2450.79	91533.5
2451.28	91533.5
2451.77	91533.5
2452.26	91533.5
2452.76	91533.5
2453.25	91533.5
2453.74	91533.5
2454.23	91533.5
2454.72	91533.5
2455.22	91533.5
2455.71	91533.5
2456.2	91533.5
2456.69	91533.5
2457.19	91533.5
2457.68	91533.5
2458.17	91533.5
2458.66	91216.9
2459.15	85565.6
2459.65	67709.8
2460.14	56132.6
2460.63	56132.6
2461.12	56132.6
2461.61	56132.6
2462.11	56132.6
2462.6	56132.6
2463.09	56132.6
2463.58	56132.6
2464.07	56132.6
2464.57	56132.6
2465.06	56132.6
2465.55	56132.6
2466.04	56132.6
2466.54	56132.6
2467.03	56132.6
2467.52	56132.6
2468.01	56132.6
2468.5	56132.6
2469	56132.6
2469.49	56132.6
2469.98	56132.6
2470.47	56132.6
2470.96	56132.6
2471.46	56132.6
2471.95	56132.6
2472.44	56132.6
2472.93	56044.9
2473.43	54760.7
2473.92	53952.2
2474.41	53816
2474.9	53816
2475.39	53816
2475.89	53816
2476.38	53816
2476.87	53816
2477.36	53816
2477.85	53816
2478.35	53816
2478.84	53816
2479.33	53816
2479.82	53816
2480.31	53816
2480.81	53816
2481.3	53816
2481.79	53816
2482.28	53816
2482.78	53816
2483.27	53816
2483.76	53816
2484.25	53816
2484.74	53816
2485.24	53816
2485.73	53816
2486.22	53816
2486.71	54340.5
2487.2	62871
2487.7	80008.4
2488.19	86095.1
2488.68	86095.1
2489.17	86095.1
2489.67	86095.1
2490.16	86095.1
2490.65	86095.1
2491.14	86095.1
2491.63	86095.1
2492.13	86095.1
2492.62	86095.1
2493.11	86095.1
2493.6	86095.1
2494.09	86095.1
2494.59	86095.1
2495.08	86095.1
2495.57	86095.1
2496.06	86095.1
2496.56	86095.1
2497.05	86095.1
2497.54	86095.1
2498.03	86095.1
2498.52	86095.1
2499.02	86095.1
2499.51	86095.1
2500	86095.1
2500.49	86095.1
2500.98	86568.4
2501.48	94269.1
2501.97	110124
2502.46	112068
2502.95	112068
2503.45	112068
2503.94	112068
2504.43	112068
2504.92	112068
2505.41	112068
2505.91	112068
2506.4	112068
2506.89	112068
2507.38	112068
2507.87	112068
2508.37	112068
2508.86	112068
2509.35	112068
2509.84	112068
2510.33	112068
2510.83	112068
2511.32	112068
2511.81	112068
2512.3	112068
2512.8	112068
2513.29	112068
2513.78	112068
2514.27	112068
2514.76	111424
2515.26	99825.7
2515.75	61355
2516.24	28861
2516.73	28861
2517.22	28861
2517.72	28861
2518.21	28861
2518.7	28861
2519.19	28861
2519.69	28861
2520.18	28861
2520.67	28861
2521.16	28861
2521.65	28861
2522.15	28861
2522.64	28861
2523.13	28861
2523.62	28861
2524.11	28861
2524.61	28861
2525.1	28861
2525.59	28861
2526.08	28861
2526.57	28861
2527.07	28861
2527.56	28861
2528.05	28861
2528.54	28842.4
2529.04	25337.4
2529.53	-32577.7
2530.02	-207014
2530.51	-208807
2531	-208807
2531.5	-208807
2531.99	-208807
2532.48	-208807
2532.97	-208807
2533.46	-208807
2533.96	-208807
2534.45	-208807
2534.94	-208807
2535.43	-208807
2535.93	-208807
2536.42	-208807
2536.91	-208807
2537.4	-208807
2537.89	-208807
2538.39	-208807
2538.88	-208807
2539.37	-208807
2539.86	-208807
2540.35	-208807
2540.85	-208807
2541.34	-208807
2541.83	-208807
2542.32	-208807
2542.82	-217114
2543.31	-339202
2543.8	-432227
2544.29	-433337
2544.78	-433337
2545.28	-433337
2545.77	-433337
2546.26	-433337
2546.75	-433337
2547.24	-433337
2547.74	-433337
2548.23	-433337
2548.72	-433337
2549.21	-433337
2549.7	-433337
2550.2	-433337
2550.69	-433337
2551.18	-433337
2551.67	-433337
2552.17	-433337
2552.66	-433337
2553.15	-433337
2553.64	-433337
2554.13	-433337
2554.63	-433337
2555.12	-433208
2555.61	-430537
2556.1	-416965
2556.59	-399994
2557.09	-399994
2557.58	-399994
2558.07	-399994
2558.56	-399994
2559.06	-399994
2559.55	-399994
2560.04	-399994
2560.53	-399994
2561.02	-399994
2561.52	-399994
2562.01	-399994
2562.5	-399994
2562.99	-399994
2563.48	-399994
2563.98	-399994
2564.47	-399994
2564.96	-399994
2565.45	-399994
2565.95	-399994
2566.44	-399994
2566.93	-399994
2567.42	-399994
2567.91	-399994
2568.41	-398747
2568.9	-368374
2569.39	-183915
2569.88	-118232
2570.37	-118232
2570.87	-118232
2571.36	-118232
2571.85	-118232
2572.34	-118232
2572.83	-118232
2573.33	-118232
2573.82	-118232
2574.31	-118232
2574.8	-118232
2575.3	-118232
2575.79	-118232
2576.28	-118232
2576.77	-118232
2577.26	-118232
2577.76	-118232
2578.25	-118232
2578.74	-118232
2579.23	-118232
2579.72	-118232
2580.22	-118232
2580.71	-118232
2581.2	-118232
2581.69	-118232
2582.19	-116737
2582.68	-89069.4
2583.17	15939.4
2583.66	136590
2584.15	136590
2584.65	136590
2585.14	136590
2585.63	136590
2586.12	136590
2586.61	136590
2587.11	136590
2587.6	136590
2588.09	136590
2588.58	136590
2589.07	136590
2589.57	136590
2590.06	136590
2590.55	136590
2591.04	136590
2591.54	136590
2592.03	136590
2592.52	136590
2593.01	136590
2593.5	136590
2594	136590
2594.49	136590
2594.98	136590
2595.47	136590
2595.96	136590
2596.46	136590
2596.95	137536
2597.44	152702
2597.93	181452
2598.43	187336
2598.92	187336
2599.41	187336
2599.9	187336
2600.39	187336
2600.89	187336
2601.38	187336
2601.87	187336
2602.36	187336
2602.85	187336
2603.35	187336
2603.84	187336
2604.33	187336
2604.82	187336
2605.32	187336
2605.81	187336
2606.3	187336
2606.79	187336
2607.28	187336
2607.78	187336
2608.27	187336
2608.76	187336
2609.25	187336
2609.74	187336
2610.24	187336
2610.73	187336
2611.22	186640
2611.71	175107
2612.2	148964
2612.7	133774
2613.19	133774
2613.68	133774
2614.17	133774
2614.67	133774
2615.16	133774
2615.65	133774
2616.14	133774
2616.63	133774
2617.13	133774
2617.62	133774
2618.11	133774
2618.6	133774
2619.09	133774
2619.59	133774
2620.08	133774
2620.57	133774
2621.06	133774
2621.56	133774
2622.05	133774
2622.54	133774
2623.03	133774
2623.52	133774
2624.02	133774
2624.51	133774
2625	133774
2625.49	133774
2625.98	133104
2626.48	123465
2626.97	119621
2627.46	119259
2627.95	119259
2628.45	119259
2628.94	119259
2629.43	119259
2629.92	119259
2630.41	119259
2630.91	119259
2631.4	119259
2631.89	119259
2632.38	119259
2632.87	119259
2633.37	119259
2633.86	119259
2634.35	119259
2634.84	119259
2635.33	119259
2635.83	119259
2636.32	119259
2636.81	119259
2637.3	119259
2637.8	119259
2638.29	119259
2638.78	119259
2639.27	119259
2639.76	119259
2640.26	119525
2640.75	123645
2641.24	129732
2641.73	131403
2642.22	131403
2642.72	131403
2643.21	131403
2643.7	131403
2644.19	131403
2644.69	131403
2645.18	131403
2645.67	131403
2646.16	131403
2646.65	131403
2647.15	131403
2647.64	131403
2648.13	131403
2648.62	131403
2649.11	131403
2649.61	131403
2650.1	131403
2650.59	131403
2651.08	131403
2651.57	131403
2652.07	131403
2652.56	131403
2653.05	131403
2653.54	131403
2654.04	131403
2654.53	131403
2655.02	130263
2655.51	114171
2656	110732
2656.5	110599
2656.99	110599
2657.48	110599
2657.97	110599
2658.46	110599
2658.96	110599
2659.45	110599
2659.94	110599
2660.43	110599
2660.93	110599
2661.42	110599
2661.91	110599
2662.4	110599
2662.89	110599
2663.39	110599
2663.88	110599
2664.37	110599
2664.86	110599
2665.35	110599
2665.85	110599
2666.34	110599
2666.83	110599
2667.32	110599
2667.81	110599
2668.31	110599
2668.8	110426
2669.29	106717
2669.78	87501.2
2670.28	72184.7
2670.77	72184.7
2671.26	72184.7
2671.75	72184.7
2672.24	72184.7
2672.74	72184.7
2673.23	72184.7
2673.72	72184.7
2674.21	72184.7
2674.7	72184.7
2675.2	72184.7
2675.69	72184.7
2676.18	72184.7
2676.67	72184.7
2677.17	72184.7
2677.66	72184.7
2678.15	72184.7
2678.64	72184.7
2679.13	72184.7
2679.63	72184.7
2680.12	72184.7
2680.61	72184.7
2681.1	72184.7
2681.59	72184.7
2682.09	72184.7
2682.58	72184.7
2683.07	72142.7
2683.56	70859.3
2684.06	59807.4
2684.55	41990
2685.04	41990
2685.53	41990
2686.02	41990
2686.52	41990
2687.01	41990
2687.5	41990
2687.99	41990
2688.48	41990
2688.98	41990
2689.47	41990
2689.96	41990
2690.45	41990
2690.94	41990
2691.44	41990
2691.93	41990
2692.42	41990
2692.91	41990
2693.41	41990
2693.9	41990
2694.39	41990
2694.88	41990
2695.37	41990
2695.87	41990
2696.36	41990
2696.85	41990
2697.34	41990
2697.83	41164
2698.33	28580.3
2698.82	12736.7
2699.31	7185.27
2699.8	7185.27
2700.3	7185.27
2700.79	7185.27
2701.28	7185.27
2701.77	7185.27
2702.26	7185.27
2702.76	7185.27
2703.25	7185.27
2703.74	7185.27
2704.23	7185.27
2704.72	7185.27
2705.22	7185.27
2705.71	7185.27
2706.2	7185.27
2706.69	7185.27
2707.19	7185.27
2707.68	7185.27
2708.17	7185.27
2708.66	7185.27
2709.15	7185.27
2709.65	7185.27
2710.14	7185.27
2710.63	7185.27
2711.12	7185.27
2711.61	7149.23
2712.11	6161.61
2712.6	-2488.99
2713.09	-28137.7
2713.58	-28137.7
2714.07	-28137.7
2714.57	-28137.7
2715.06	-28137.7
2715.55	-28137.7
2716.04	-28137.7
2716.54	-28137.7
2717.03	-28137.7
2717.52	-28137.7
2718.01	-28137.7
2718.5	-28137.7
2719	-28137.7
2719.49	-28137.7
2719.98	-28137.7
2720.47	-28137.7
2720.96	-28137.7
2721.46	-28137.7
2721.95	-28137.7
2722.44	-28137.7
2722.93	-28137.7
2723.43	-28137.7
2723.92	-28137.7
2724.41	-28137.7
2724.9	-28137.7
2725.39	-28137.7
2725.89	-28137.7
2726.38	-28937.6
2726.87	-40523
2727.36	-47133.2
2727.85	-47854.7
2728.35	-47854.7
2728.84	-47854.7
2729.33	-47854.7
2729.82	-47854.7
2730.31	-47854.7
2730.81	-47854.7
2731.3	-47854.7
2731.79	-47854.7
2732.28	-47854.7
2732.78	-47854.7
2733.27	-47854.7
2733.76	-47854.7
2734.25	-47854.7
2734.74	-47854.7
2735.24	-47854.7
2735.73	-47854.7
2736.22	-47854.7
2736.71	-47854.7
2737.2	-47854.7
2737.7	-47854.7
2738.19	-47854.7
2738.68	-47854.7
2739.17	-47854.7
2739.67	-47854.7
2740.16	-48066.4
2740.65	-51933.3
2741.14	-65398.1
2741.63	-76502.3
2742.13	-76502.3
2742.62	-76502.3
2743.11	-76502.3
2743.6	-76502.3
2744.09	-76502.3
2744.59	-76502.3
2745.08	-76502.3
2745.57	-76502.3
2746.06	-76502.3
2746.56	-76502.3
2747.05	-76502.3
2747.54	-76502.3
2748.03	-76502.3
2748.52	-76502.3
2749.02	-76502.3
2749.51	-76502.3
2750	-76502.3
2750.49	-76502.3
2750.98	-76502.3
2751.48	-76502.3
2751.97	-76502.3
2752.46	-76502.3
2752.95	-76502.3
2753.45	-76502.3
2753.94	-76502.3
2754.43	-77756
2754.92	-96818.7
2755.41	-120149
2755.91	-125511
2756.4	-125511
2756.89	-125511
2757.38	-125511
2757.87	-125511
2758.37	-125511
2758.86	-125511
2759.35	-125511
2759.84	-125511
2760.33	-125511
2760.83	-125511
2761.32	-125511
2761.81	-125511
2762.3	-125511
2762.8	-125511
2763.29	-125511
2763.78	-125511
2764.27	-125511
2764.76	-125511
2765.26	-125511
2765.75	-125511
2766.24	-125511
2766.73	-125511
2767.22	-125511
2767.72	-125511
2768.21	-125598
2768.7	-127082
2769.19	-131270
2769.69	-134636
2770.18	-134636
2770.67	-134636
2771.16	-134636
2771.65	-134636
2772.15	-134636
2772.64	-134636
2773.13	-134636
2773.62	-134636
2774.11	-134636
2774.61	-134636
2775.1	-134636
2775.59	-134636
2776.08	-134636
2776.57	-134636
2777.07	-134636
2777.56	-134636
2778.05	-134636
2778.54	-134636
2779.04	-134636
2779.53	-134636
2780.02	-134636
2780.51	-134636
2781	-134636
2781.5	-134636
2781.99	-134636
2782.48	-131824
2782.97	-91036.4
2783.46	-70471.9
2783.96	-68276.5
2784.45	-68276.5
2784.94	-68276.5
2785.43	-68276.5
2785.93	-68276.5
2786.42	-68276.5
2786.91	-68276.5
2787.4	-68276.5
2787.89	-68276.5
2788.39	-68276.5
2788.88	-68276.5
2789.37	-68276.5
2789.86	-68276.5
2790.35	-68276.5
2790.85	-68276.5
2791.34	-68276.5
2791.83	-68276.5
2792.32	-68276.5
2792.82	-68276.5
2793.31	-68276.5
2793.8	-68276.5
2794.29	-68276.5
2794.78	-68276.5
2795.28	-68276.5
2795.77	-68276.5
2796.26	-67057.9
2796.75	-47664.5
2797.24	-12009.4
2797.74	5628.99
2798.23	5628.99
2798.72	5628.99
2799.21	5628.99
2799.7	5628.99
2800.2	5628.99
2800.69	5628.99
2801.18	5628.99
2801.67	5628.99
2802.17	5628.99
2802.66	5628.99
2803.15	5628.99
2803.64	5628.99
2804.13	5628.99
2804.63	5628.99
2805.12	5628.99
2805.61	5628.99
2806.1	5628.99
2806.59	5628.99
2807.09	5628.99
2807.58	5628.99
2808.07	5628.99
2808.56	5628.99
2809.06	5628.99
2809.55	5628.99
2810.04	5628.99
2810.53	5914.37
2811.02	11193.9
2811.52	29137.5
2812.01	29471.8
2812.5	29471.8
2812.99	29471.8
2813.48	29471.8
2813.98	29471.8
2814.47	29471.8
2814.96	29471.8
2815.45	29471.8
2815.95	29471.8
2816.44	29471.8
2816.93	29471.8
2817.42	29471.8
2817.91	29471.8
2818.41	29471.8
2818.9	29471.8
2819.39	29471.8
2819.88	29471.8
2820.37	29471.8
2820.87	29471.8
2821.36	29471.8
2821.85	29471.8
2822.34	29471.8
2822.83	29471.8
2823.33	29471.8
2823.82	29471.8
2824.31	29471.8
2824.8	29862.9
2825.3	35870.5
2825.79	44099.1
2826.28	47135
2826.77	47135
2827.26	47135
2827.76	47135
2828.25	47135
2828.74	47135
2829.23	47135
2829.72	47135
2830.22	47135
2830.71	47135
2831.2	47135
2831.69	47135
2832.19	47135
2832.68	47135
2833.17	47135
2833.66	47135
2834.15	47135
2834.65	47135
2835.14	47135
2835.63	47135
2836.12	47135
2836.61	47135
2837.11	47135
2837.6	47135
2838.09	47135
2838.58	47183.2
2839.07	48526.8
2839.57	59938.7
2840.06	88503.3
2840.55	88503.3
2841.04	88503.3
2841.54	88503.3
2842.03	88503.3
2842.52	88503.3
2843.01	88503.3
2843.5	88503.3
2844	88503.3
2844.49	88503.3
2844.98	88503.3
2845.47	88503.3
2845.96	88503.3
2846.46	88503.3
2846.95	88503.3
2847.44	88503.3
2847.93	88503.3
2848.43	88503.3
2848.92	88503.3
2849.41	88503.3
2849.9	88503.3
2850.39	88503.3
2850.89	88503.3
2851.38	88503.3
2851.87	88503.3
2852.36	88503.3
2852.85	88503.3
2853.35	88452.5
2853.84	87680.5
2854.33	86806.2
2854.82	86532.1
2855.32	86532.1
2855.81	86532.1
2856.3	86532.1
2856.79	86532.1
2857.28	86532.1
2857.78	86532.1
2858.27	86532.1
2858.76	86532.1
2859.25	86532.1
2859.74	86532.1
2860.24	86532.1
2860.73	86532.1
2861.22	86532.1
2861.71	86532.1
2862.2	86532.1
2862.7	86532.1
2863.19	86532.1
2863.68	86532.1
2864.17	86532.1
2864.67	86532.1
2865.16	86532.1
2865.65	86532.1
2866.14	86532.1
2866.63	86532.1
2867.13	86532.1
2867.62	85702
2868.11	69749.1
2868.6	7872.54
2869.09	6583.81
2869.59	6583.81
2870.08	6583.81
2870.57	6583.81
2871.06	6583.81
2871.56	6583.81
2872.05	6583.81
2872.54	6583.81
2873.03	6583.81
2873.52	6583.81
2874.02	6583.81
2874.51	6583.81
2875	6583.81
2875.49	6583.81
2875.98	6583.81
2876.48	6583.81
2876.97	6583.81
2877.46	6583.81
2877.95	6583.81
2878.45	6583.81
2878.94	6583.81
2879.43	6583.81
2879.92	6583.81
2880.41	6583.81
2880.91	6583.81
2881.4	6583.81
2881.89	4178.03
2882.38	-31508.1
2882.87	-60450.2
2883.37	-66950.5
2883.86	-66950.5
2884.35	-66950.5
2884.84	-66950.5
2885.33	-66950.5
2885.83	-66950.5
2886.32	-66950.5
2886.81	-66950.5
2887.3	-66950.5
2887.8	-66950.5
2888.29	-66950.5
2888.78	-66950.5
2889.27	-66950.5
2889.76	-66950.5
2890.26	-66950.5
2890.75	-66950.5
2891.24	-66950.5
2891.73	-66950.5
2892.22	-66950.5
2892.72	-66950.5
2893.21	-66950.5
2893.7	-66950.5
2894.19	-66950.5
2894.69	-66950.5
2895.18	-66932.1
2895.67	-66533.2
2896.16	-64296.4
2896.65	-60624
2897.15	-60624
2897.64	-60624
2898.13	-60624
2898.62	-60624
2899.11	-60624
2899.61	-60624
2900.1	-60624
2900.59	-60624
2901.08	-60624
2901.57	-60624
2902.07	-60624
2902.56	-60624
2903.05	-60624
2903.54	-60624
2904.04	-60624
2904.53	-60624
2905.02	-60624
2905.51	-60624
2906	-60624
2906.5	-60624
2906.99	-60624
2907.48	-60624
2907.97	-60624
2908.46	-60624
2908.96	-60624
2909.45	-60624
2909.94	-57801.9
2910.43	-17648.3
2910.93	-8155.78
2911.42	-8043.93
2911.91	-8043.93
2912.4	-8043.93
2912.89	-8043.93
2913.39	-8043.93
2913.88	-8043.93
2914.37	-8043.93
2914.86	-8043.93
2915.35	-8043.93
2915.85	-8043.93
2916.34	-8043.93
2916.83	-8043.93
2917.32	-8043.93
2917.82	-8043.93
2918.31	-8043.93
2918.8	-8043.93
2919.29	-8043.93
2919.78	-8043.93
2920.28	-8043.93
2920.77	-8043.93
2921.26	-8043.93
2921.75	-8043.93
2922.24	-8043.93
2922.74	-8043.93
2923.23	-8043.93
2923.72	-7136.78
2924.21	7451.56
2924.7	34513.7
2925.2	42779.6
2925.69	42779.6
2926.18	42779.6
2926.67	42779.6
2927.17	42779.6
2927.66	42779.6
2928.15	42779.6
2928.64	42779.6
2929.13	42779.6
2929.63	42779.6
2930.12	42779.6
2930.61	42779.6
2931.1	42779.6
2931.59	42779.6
2932.09	42779.6
2932.58	42779.6
2933.07	42779.6
2933.56	42779.6
2934.06	42779.6
2934.55	42779.6
2935.04	42779.6
2935.53	42779.6
2936.02	42779.6
2936.52	42779.6
2937.01	42779.6
2937.5	42779.6
2937.99	43929.6
2938.48	61587.9
2938.98	85206.4
2939.47	87609.5
2939.96	87609.5
2940.45	87609.5
2940.95	87609.5
2941.44	87609.5
2941.93	87609.5
2942.42	87609.5
2942.91	87609.5
2943.41	87609.5
2943.9	87609.5
2944.39	87609.5
2944.88	87609.5
2945.37	87609.5
2945.87	87609.5
2946.36	87609.5
2946.85	87609.5
2947.34	87609.5
2947.83	87609.5
2948.33	87609.5
2948.82	87609.5
2949.31	87609.5
2949.8	87609.5
2950.3	87609.5
2950.79	87609.5
2951.28	87609.5
2951.77	87609.5
2952.26	87799.2
2952.76	90718.2
2953.25	94480.8
2953.74	95152.1
2954.23	95152.1
2954.72	95152.1
2955.22	95152.1
2955.71	95152.1
2956.2	95152.1
2956.69	95152.1
2957.19	95152.1
2957.68	95152.1
2958.17	95152.1
2958.66	95152.1
2959.15	95152.1
2959.65	95152.1
2960.14	95152.1
2960.63	95152.1
2961.12	95152.1
2961.61	95152.1
2962.11	95152.1
2962.6	95152.1
2963.09	95152.1
2963.58	95152.1
2964.07	95152.1
2964.57	95152.1
2965.06	95152.1
2965.55	95152.1
2966.04	95147.2
2966.54	94223.1
2967.03	78262.2
2967.52	22370.7
2968.01	21773.8
2968.5	21773.8
2969	21773.8
2969.49	21773.8
2969.98	21773.8
2970.47	21773.8
2970.96	21773.8
2971.46	21773.8
2971.95	21773.8
2972.44	21773.8
2972.93	21773.8
2973.43	21773.8
2973.92	21773.8
2974.41	21773.8
2974.9	21773.8
2975.39	21773.8
2975.89	21773.8
2976.38	21773.8
2976.87	21773.8
2977.36	21773.8
2977.85	21773.8
2978.35	21773.8
2978.84	21773.8
2979.33	21773.8
2979.82	21773.8
2980.31	21773.8
2980.81	19736.8
2981.3	-11812.5
2981.79	-58534.1
2982.28	-77827.2
2982.78	-77827.2
2983.27	-77827.2
2983.76	-77827.2
2984.25	-77827.2
2984.74	-77827.2
2985.24	-77827.2
2985.73	-77827.2
2986.22	-77827.2
2986.71	-77827.2
2987.2	-77827.2
2987.7	-77827.2
2988.19	-77827.2
2988.68	-77827.2
2989.17	-77827.2
2989.67	-77827.2
2990.16	-77827.2
2990.65	-77827.2
2991.14	-77827.2
2991.63	-77827.2
2992.13	-77827.2
2992.62	-77827.2
2993.11	-77827.2
2993.6	-77827.2
2994.09	-77827.2
2994.59	-77890.9
2995.08	-79441.8
2995.57	-89381.3
2996.06	-98130.3
2996.56	-98130.3
2997.05	-98130.3
2997.54	-98130.3
2998.03	-98130.3
2998.52	-98130.3
2999.02	-98130.3
2999.51	-98130.3
3000	-98130.3
3000.49	-98130.3
3000.98	-98130.3
3001.48	-98130.3
3001.97	-98130.3
3002.46	-98130.3
3002.95	-98130.3
3003.44	-98130.3
3003.94	-98130.3
3004.43	-98130.3
3004.92	-98130.3
3005.41	-98130.3
3005.91	-98130.3
3006.4	-98130.3
3006.89	-98130.3
3007.38	-98130.3
3007.87	-98130.3
3008.37	-98130.3
3008.86	-96976.3
3009.35	-79177.9
3009.84	-55468.1
3010.33	-47077.9
3010.83	-47077.9
3011.32	-47077.9
3011.81	-47077.9
3012.3	-47077.9
3012.8	-47077.9
3013.29	-47077.9
3013.78	-47077.9
3014.27	-47077.9
3014.76	-47077.9
3015.26	-47077.9
3015.75	-47077.9
3016.24	-47077.9
3016.73	-47077.9
3017.22	-47077.9
3017.72	-47077.9
3018.21	-47077.9
3018.7	-47077.9
3019.19	-47077.9
3019.69	-47077.9
3020.18	-47077.9
3020.67	-47077.9
3021.16	-47077.9
3021.65	-47077.9
3022.15	-47077.9
3022.64	-47077.9
3023.13	-46844.9
3023.62	-42435.5
3024.11	-25845.8
3024.61	-18836.2
3025.1	-18836.2
3025.59	-18836.2
3026.08	-18836.2
3026.57	-18836.2
3027.07	-18836.2
3027.56	-18836.2
3028.05	-18836.2
3028.54	-18836.2
3029.04	-18836.2
3029.53	-18836.2
3030.02	-18836.2
3030.51	-18836.2
3031	-18836.2
3031.5	-18836.2
3031.99	-18836.2
3032.48	-18836.2
3032.97	-18836.2
3033.46	-18836.2
3033.96	-18836.2
3034.45	-18836.2
3034.94	-18836.2
3035.43	-18836.2
3035.93	-18836.2
3036.42	-18836.2
3036.91	-18836.2
3037.4	-18847.9
3037.89	-19093.5
3038.39	-20280.5
3038.88	-20712.2
3039.37	-20712.2
3039.86	-20712.2
3040.35	-20712.2
3040.85	-20712.2
3041.34	-20712.2
3041.83	-20712.2
3042.32	-20712.2
3042.81	-20712.2
3043.31	-20712.2
3043.8	-20712.2
3044.29	-20712.2
3044.78	-20712.2
3045.28	-20712.2
3045.77	-20712.2
3046.26	-20712.2
3046.75	-20712.2
3047.24	-20712.2
3047.74	-20712.2
3048.23	-20712.2
3048.72	-20712.2
3049.21	-20712.2
3049.7	-20712.2
3050.2	-20712.2
3050.69	-20712.2
3051.18	-20712.2
3051.67	-20595.2
3052.17	-18164.2
3052.66	-5727.72
3053.15	13730.7
3053.64	13730.7
3054.13	13730.7
3054.63	13730.7
3055.12	13730.7
3055.61	13730.7
3056.1	13730.7
3056.59	13730.7
3057.09	13730.7
3057.58	13730.7
3058.07	13730.7
3058.56	13730.7
3059.06	13730.7
3059.55	13730.7
3060.04	13730.7
3060.53	13730.7
3061.02	13730.7
3061.52	13730.7
3062.01	13730.7
3062.5	13730.7
3062.99	13730.7
3063.48	13730.7
3063.98	13730.7
3064.47	13730.7
3064.96	13730.7
3065.45	13730.7
3065.95	13730.7
3066.44	13755
3066.93	16706.7
3067.42	53699
3067.91	63350.8
3068.41	63350.8
3068.9	63350.8
3069.39	63350.8
3069.88	63350.8
3070.37	63350.8
3070.87	63350.8
3071.36	63350.8
3071.85	63350.8
3072.34	63350.8
3072.83	63350.8
3073.33	63350.8
3073.82	63350.8
3074.31	63350.8
3074.8	63350.8
3075.3	63350.8
3075.79	63350.8
3076.28	63350.8
3076.77	63350.8
3077.26	63350.8
3077.76	63350.8
3078.25	63350.8
3078.74	63350.8
3079.23	63350.8
3079.72	63350.8
3080.22	63350.8
3080.71	63350.8
3081.2	63195.1
3081.69	60374.9
3082.19	50740.7
3082.68	40883.4
3083.17	40883.4
3083.66	40883.4
3084.15	40883.4
3084.65	40883.4
3085.14	40883.4
3085.63	40883.4
3086.12	40883.4
3086.61	40883.4
3087.11	40883.4
3087.6	40883.4
3088.09	40883.4
3088.58	40883.4
3089.07	40883.4
3089.57	40883.4
3090.06	40883.4
3090.55	40883.4
3091.04	40883.4
3091.54	40883.4
3092.03	40883.4
3092.52	40883.4
3093.01	40883.4
3093.5	40883.4
3094	40883.4
3094.49	40883.4
3094.98	40883.4
3095.47	40883.4
3095.96	40883.4
3096.46	36919.7
3096.95	-19386.4
3097.44	-36586.1
3097.93	-38031.3
3098.43	-38031.3
3098.92	-38031.3
3099.41	-38031.3
3099.9	-38031.3
3100.39	-38031.3
3100.89	-38031.3
3101.38	-38031.3
3101.87	-38031.3
3102.36	-38031.3
3102.85	-38031.3
3103.35	-38031.3
3103.84	-38031.3
3104.33	-38031.3
3104.82	-38031.3
3105.32	-38031.3
3105.81	-38031.3
3106.3	-38031.3
3106.79	-38031.3
3107.28	-38031.3
3107.78	-38031.3
3108.27	-38031.3
3108.76	-38031.3
3109.25	-38031.3
3109.74	-38031.3
3110.24	-38031.3
3110.73	-38421.6
3111.22	-44826.5
3111.71	-58542.2
3112.2	-66069.6
3112.7	-66069.6
3113.19	-66069.6
3113.68	-66069.6
3114.17	-66069.6
3114.67	-66069.6
3115.16	-66069.6
3115.65	-66069.6
3116.14	-66069.6
3116.63	-66069.6
3117.13	-66069.6
3117.62	-66069.6
3118.11	-66069.6
3118.6	-66069.6
3119.09	-66069.6
3119.59	-66069.6
3120.08	-66069.6
3120.57	-66069.6
3121.06	-66069.6
3121.56	-66069.6
3122.05	-66069.6
3122.54	-66069.6
3123.03	-66069.6
3123.52	-66069.6
3124.02	-66069.6
3124.51	-66069.6
3125	-66069.6
3125.49	-65826.9
3125.98	-59711.8
3126.48	-21586.8
3126.97	-17486.9
3127.46	-17486.9
3127.95	-17486.9
3128.45	-17486.9
3128.94	-17486.9
3129.43	-17486.9
3129.92	-17486.9
3130.41	-17486.9
3130.91	-17486.9
3131.4	-17486.9
3131.89	-17486.9
3132.38	-17486.9
3132.87	-17486.9
3133.37	-17486.9
3133.86	-17486.9
3134.35	-17486.9
3134.84	-17486.9
3135.33	-17486.9
3135.83	-17486.9
3136.32	-17486.9
3136.81	-17486.9
3137.3	-17486.9
3137.8	-17486.9
3138.29	-17486.9
3138.78	-17486.9
3139.27	-17486.9
3139.76	-17486.9
3140.26	-17034
3140.75	-9260.94
3141.24	11930.1
3141.73	28221.1
3142.22	28221.1
3142.72	28221.1
3143.21	28221.1
3143.7	28221.1
3144.19	28221.1
3144.69	28221.1
3145.18	28221.1
3145.67	28221.1
3146.16	28221.1
3146.65	28221.1
3147.15	28221.1
3147.64	28221.1
3148.13	28221.1
3148.62	28221.1
3149.11	28221.1
3149.61	28221.1
3150.1	28221.1
3150.59	28221.1
3151.08	28221.1
3151.57	28221.1
3152.07	28221.1
3152.56	28221.1
3153.05	28221.1
3153.54	28221.1
3154.04	28221.1
3154.53	28221.1
3155.02	28221.1
3155.51	28234
3156	28443
3156.5	28852.2
3156.99	28876.9
3157.48	28876.9
3157.97	28876.9
3158.46	28876.9
3158.96	28876.9
3159.45	28876.9
3159.94	28876.9
3160.43	28876.9
3160.93	28876.9
3161.42	28876.9
3161.91	28876.9
3162.4	28876.9
3162.89	28876.9
3163.39	28876.9
3163.88	28876.9
3164.37	28876.9
3164.86	28876.9
3165.35	28876.9
3165.85	28876.9
3166.34	28876.9
3166.83	28876.9
3167.32	28876.9
3167.82	28876.9
3168.31	28876.9
3168.8	28876.9
3169.29	28876.9
3169.78	28876.9
3170.28	28858.5
3170.77	28511.5
3171.26	27151.4
3171.75	25988
3172.24	25988
3172.74	25988
3173.23	25988
3173.72	25988
3174.21	25988
3174.7	25988
3175.2	25988
3175.69	25988
3176.18	25988
3176.67	25988
3177.17	25988
3177.66	25988
3178.15	25988
3178.64	25988
3179.13	25988
3179.63	25988
3180.12	25988
3180.61	25988
3181.1	25988
3181.59	25988
3182.09	25988
3182.58	25988
3183.07	25988
3183.56	25988
3184.06	25988
3184.55	25988
3185.04	25988
3185.53	26100
3186.02	29092.7
3186.52	49058
3187.01	49429.6
3187.5	49429.6
3187.99	49429.6
3188.48	49429.6
3188.98	49429.6
3189.47	49429.6
3189.96	49429.6
3190.45	49429.6
3190.95	49429.6
3191.44	49429.6
3191.93	49429.6
3192.42	49429.6
3192.91	49429.6
3193.41	49429.6
3193.9	49429.6
3194.39	49429.6
3194.88	49429.6
3195.37	49429.6
3195.87	49429.6
3196.36	49429.6
3196.85	49429.6
3197.34	49429.6
3197.83	49429.6
3198.33	49429.6
3198.82	49429.6
3199.31	49429.6
3199.8	49429.6
3200.3	49429.6
3200.79	49837.4
3201.28	56178.6
3201.77	65303.3
3202.26	68714.2
3202.76	68714.2
3203.25	68714.2
3203.74	68714.2
3204.23	68714.2
3204.72	68714.2
3205.22	68714.2
3205.71	68714.2
3206.2	68714.2
3206.69	68714.2
3207.19	68714.2
3207.68	68714.2
3208.17	68714.2
3208.66	68714.2
3209.15	68714.2
3209.65	68714.2
3210.14	68714.2
3210.63	68714.2
3211.12	68714.2
3211.61	68714.2
3212.11	68714.2
3212.6	68714.2
3213.09	68714.2
3213.58	68714.2
3214.07	68714.2
3214.57	68714.2
3215.06	68714.2
3215.55	68709.4
3216.04	68416.8
3216.54	64078.2
3217.03	47230.6
3217.52	47230.6
3218.01	47230.6
3218.5	47230.6
3219	47230.6
3219.49	47230.6
3219.98	47230.6
3220.47	47230.6
3220.96	47230.6
3221.46	47230.6
3221.95	47230.6
3222.44	47230.6
3222.93	47230.6
3223.43	47230.6
3223.92	47230.6
3224.41	47230.6
3224.9	47230.6
3225.39	47230.6
3225.89	47230.6
3226.38	47230.6
3226.87	47230.6
3227.36	47230.6
3227.85	47230.6
3228.35	47230.6
3228.84	47230.6
3229.33	47230.6
3229.82	47230.6
3230.32	47230.6
3230.81	47230.6
3231.3	45711.8
3231.79	22739.7
3232.28	-1748.5
3232.78	-6548.44
3233.27	-6548.44
3233.76	-6548.44
3234.25	-6548.44
3234.74	-6548.44
3235.24	-6548.44
3235.73	-6548.44
3236.22	-6548.44
3236.71	-6548.44
3237.2	-6548.44
3237.7	-6548.44
3238.19	-6548.44
3238.68	-6548.44
3239.17	-6548.44
3239.67	-6548.44
3240.16	-6548.44
3240.65	-6548.44
3241.14	-6548.44
3241.63	-6548.44
3242.13	-6548.44
3242.62	-6548.44
3243.11	-6548.44
3243.6	-6548.44
3244.09	-6548.44
3244.59	-6548.44
3245.08	-6548.44
3245.57	-6548.44
3246.06	-6615.53
3246.56	-9003.37
3247.05	-30332.6
3247.54	-46865
3248.03	-46865
3248.52	-46865
3249.02	-46865
3249.51	-46865
3250	-46865
3250.49	-46865
3250.98	-46865
3251.48	-46865
3251.97	-46865
3252.46	-46865
3252.95	-46865
3253.45	-46865
3253.94	-46865
3254.43	-46865
3254.92	-46865
3255.41	-46865
3255.91	-46865
3256.4	-46865
3256.89	-46865
3257.38	-46865
3257.87	-46865
3258.37	-46865
3258.86	-46865
3259.35	-46865
3259.84	-46865
3260.33	-46865
3260.83	-46865
3261.32	-46766.8
3261.81	-45197.5
3262.3	-42228.8
3262.8	-40741.9
3263.29	-40741.9
3263.78	-40741.9
3264.27	-40741.9
3264.76	-40741.9
3265.26	-40741.9
3265.75	-40741.9
3266.24	-40741.9
3266.73	-40741.9
3267.22	-40741.9
3267.72	-40741.9
3268.21	-40741.9
3268.7	-40741.9
3269.19	-40741.9
3269.69	-40741.9
3270.18	-40741.9
3270.67	-40741.9
3271.16	-40741.9
3271.65	-40741.9
3272.15	-40741.9
3272.64	-40741.9
3273.13	-40741.9
3273.62	-40741.9
3274.11	-40741.9
3274.61	-40741.9
3275.1	-40741.9
3275.59	-40741.9
3276.08	-40714.8
3276.57	-39959.2
3277.07	-33421.7
3277.56	-16157.6
3278.05	-16157.6
3278.54	-16157.6
3279.04	-16157.6
3279.53	-16157.6
3280.02	-16157.6
3280.51	-16157.6
3281	-16157.6
3281.5	-16157.6
3281.99	-16157.6
3282.48	-16157.6
3282.97	-16157.6
3283.46	-16157.6
3283.96	-16157.6
3284.45	-16157.6
3284.94	-16157.6
3285.43	-16157.6
3285.93	-16157.6
3286.42	-16157.6
3286.91	-16157.6
3287.4	-16157.6
3287.89	-16157.6
3288.39	-16157.6
3288.88	-16157.6
3289.37	-16157.6
3289.86	-16157.6
3290.35	-16157.6
3290.85	-16157.6
3291.34	-16157.6
3291.83	-16598.4
3292.32	-23137.5
3292.82	-28409
3293.31	-29102.3
3293.8	-29102.3
3294.29	-29102.3
3294.78	-29102.3
3295.28	-29102.3
3295.77	-29102.3
3296.26	-29102.3
3296.75	-29102.3
3297.24	-29102.3
3297.74	-29102.3
3298.23	-29102.3
3298.72	-29102.3
3299.21	-29102.3
3299.7	-29102.3
3300.2	-29102.3
3300.69	-29102.3
3301.18	-29102.3
3301.67	-29102.3
3302.17	-29102.3
3302.66	-29102.3
3303.15	-29102.3
3303.64	-29102.3
3304.13	-29102.3
3304.63	-29102.3
3305.12	-29102.3
3305.61	-29102.3
3306.1	-29102.3
3306.59	-29202.5
3307.09	-31558.3
3307.58	-46149.3
3308.07	-64689.8
3308.56	-64689.8
3309.06	-64689.8
3309.55	-64689.8
3310.04	-64689.8
3310.53	-64689.8
3311.02	-64689.8
3311.52	-64689.8
3312.01	-64689.8
3312.5	-64689.8
3312.99	-64689.8
3313.48	-64689.8
3313.98	-64689.8
3314.47	-64689.8
3314.96	-64689.8
3315.45	-64689.8
3315.95	-64689.8
3316.44	-64689.8
3316.93	-64689.8
3317.42	-64689.8
3317.91	-64689.8
3318.41	-64689.8
3318.9	-64689.8
3319.39	-64689.8
3319.88	-64689.8
3320.37	-64689.8
3320.87	-64689.8
3321.36	-64689.8
3321.85	-64553.4
3322.34	-61952.1
3322.83	-51698.4
3323.33	-46193.5
3323.82	-46193.5
3324.31	-46193.5
3324.8	-46193.5
3325.3	-46193.5
3325.79	-46193.5
3326.28	-46193.5
3326.77	-46193.5
3327.26	-46193.5
3327.76	-46193.5
3328.25	-46193.5
3328.74	-46193.5
3329.23	-46193.5
3329.72	-46193.5
3330.22	-46193.5
3330.71	-46193.5
3331.2	-46193.5
3331.69	-46193.5
3332.19	-46193.5
3332.68	-46193.5
3333.17	-46193.5
3333.66	-46193.5
3334.15	-46193.5
3334.65	-46193.5
3335.14	-46193.5
3335.63	-46193.5
3336.12	-46193.5
3336.61	-46193.5
3337.11	-45816.1
3337.6	-37902.1
3338.09	20.7172
3338.58	17935
3339.07	17935
3339.57	17935
3340.06	17935
3340.55	17935
3341.04	17935
3341.54	17935
3342.03	17935
3342.52	17935
3343.01	17935
3343.5	17935
3344	17935
3344.49	17935
3344.98	17935
3345.47	17935
3345.96	17935
3346.46	17935
3346.95	17935
3347.44	17935
3347.93	17935
3348.43	17935
3348.92	17935
3349.41	17935
3349.9	17935
3350.39	17935
3350.89	17935
3351.38	17935
3351.87	17935
3352.36	17908.5
3352.85	17319.5
3353.35	14113.4
3353.84	12470
3354.33	12470
3354.82	12470
3355.31	12470
3355.81	12470
3356.3	12470
3356.79	12470
3357.28	12470
3357.78	12470
3358.27	12470
3358.76	12470
3359.25	12470
3359.74	12470
3360.24	12470
3360.73	12470
3361.22	12470
3361.71	12470
3362.2	12470
3362.7	12470
3363.19	12470
3363.68	12470
3364.17	12470
3364.67	12470
3365.16	12470
3365.65	12470
3366.14	12470
3366.63	12470
3367.13	12470
3367.62	12260.3
3368.11	7492.85
3368.6	-22876.3
3369.09	-86003.3
3369.59	-86003.3
3370.08	-86003.3
3370.57	-86003.3
3371.06	-86003.3
3371.56	-86003.3
3372.05	-86003.3
3372.54	-86003.3
3373.03	-86003.3
3373.52	-86003.3
3374.02	-86003.3
3374.51	-86003.3
3375	-86003.3
3375.49	-86003.3
3375.98	-86003.3
3376.48	-86003.3
3376.97	-86003.3
3377.46	-86003.3
3377.95	-86003.3
3378.44	-86003.3
3378.94	-86003.3
3379.43	-86003.3
3379.92	-86003.3
3380.41	-86003.3
3380.91	-86003.3
3381.4	-86003.3
3381.89	-86003.3
3382.38	-86003.3
3382.87	-86003.3
3383.37	-87301.7
3383.86	-106748
3384.35	-125066
3384.84	-129840
3385.33	-129840
3385.83	-129840
3386.32	-129840
3386.81	-129840
3387.3	-129840
3387.8	-129840
3388.29	-129840
3388.78	-129840
3389.27	-129840
3389.76	-129840
3390.26	-129840
3390.75	-129840
3391.24	-129840
3391.73	-129840
3392.22	-129840
3392.72	-129840
3393.21	-129840
3393.7	-129840
3394.19	-129840
3394.69	-129840
3395.18	-129840
3395.67	-129840
3396.16	-129840
3396.65	-129840
3397.15	-129840
3397.64	-129840
3398.13	-128816
3398.62	-109662
3399.11	-40896.9
3399.61	-25394
3400.1	-25394
3400.59	-25394
3401.08	-25394
3401.57	-25394
3402.07	-25394
3402.56	-25394
3403.05	-25394
3403.54	-25394
3404.04	-25394
3404.53	-25394
3405.02	-25394
3405.51	-25394
3406	-25394
3406.5	-25394
3406.99	-25394
3407.48	-25394
3407.97	-25394
3408.46	-25394
3408.96	-25394
3409.45	-25394
3409.94	-25394
3410.43	-25394
3410.93	-25394
3411.42	-25394
3411.91	-25394
3412.4	-25394
3412.89	-25394
3413.39	-25394
3413.88	-20730
3414.37	48208
3414.86	100846
3415.35	111713
3415.85	111713
3416.34	111713
3416.83	111713
3417.32	111713
3417.81	111713
3418.31	111713
3418.8	111713
3419.29	111713
3419.78	111713
3420.28	111713
3420.77	111713
3421.26	111713
3421.75	111713
3422.24	111713
3422.74	111713
3423.23	111713
3423.72	111713
3424.21	111713
3424.71	111713
3425.2	111713
3425.69	111713
3426.18	111713
3426.67	111713
3427.17	111713
3427.66	111713
3428.15	111713
3428.64	111713
3429.13	111886
3429.63	115270
3430.12	130331
3430.61	147665
3431.1	147665
3431.59	147665
3432.09	147665
3432.58	147665
3433.07	147665
3433.56	147665
3434.06	147665
3434.55	147665
3435.04	147665
3435.53	147665
3436.02	147665
3436.52	147665
3437.01	147665
3437.5	147665
3437.99	147665
3438.48	147665
3438.98	147665
3439.47	147665
3439.96	147665
3440.45	147665
3440.95	147665
3441.44	147665
3441.93	147665
3442.42	147665
3442.91	147665
3443.41	147665
3443.9	147665
3444.39	147665
3444.88	147549
3445.37	144578
3445.87	125078
3446.36	116442
3446.85	116442
3447.34	116442
3447.83	116442
3448.33	116442
3448.82	116442
3449.31	116442
3449.8	116442
3450.3	116442
3450.79	116442
3451.28	116442
3451.77	116442
3452.26	116442
3452.76	116442
3453.25	116442
3453.74	116442
3454.23	116442
3454.72	116442
3455.22	116442
3455.71	116442
3456.2	116442
3456.69	116442
3457.19	116442
3457.68	116442
3458.17	116442
3458.66	116442
3459.15	116442
3459.65	116442
3460.14	116442
3460.63	116219
3461.12	111950
3461.61	95389.7
3462.11	86166.4
3462.6	86166.4
3463.09	86166.4
3463.58	86166.4
3464.08	86166.4
3464.57	86166.4
3465.06	86166.4
3465.55	86166.4
3466.04	86166.4
3466.54	86166.4
3467.03	86166.4
3467.52	86166.4
3468.01	86166.4
3468.5	86166.4
3469	86166.4
3469.49	86166.4
3469.98	86166.4
3470.47	86166.4
3470.96	86166.4
3471.46	86166.4
3471.95	86166.4
3472.44	86166.4
3472.93	86166.4
3473.43	86166.4
3473.92	86166.4
3474.41	86166.4
3474.9	86166.4
3475.39	86166.4
3475.89	86166.4
3476.38	84729.9
3476.87	62812.6
3477.36	32962
3477.85	23074.3
3478.35	23074.3
3478.84	23074.3
3479.33	23074.3
3479.82	23074.3
3480.32	23074.3
3480.81	23074.3
3481.3	23074.3
3481.79	23074.3
3482.28	23074.3
3482.78	23074.3
3483.27	23074.3
3483.76	23074.3
3484.25	23074.3
3484.74	23074.3
3485.24	23074.3
3485.73	23074.3
3486.22	23074.3
3486.71	23074.3
3487.2	23074.3
3487.7	23074.3
3488.19	23074.3
3488.68	23074.3
3489.17	23074.3
3489.67	23074.3
3490.16	23074.3
3490.65	23074.3
3491.14	23074.3
3491.63	22211.6
3492.13	6260.36
3492.62	-49015.9
3493.11	-62154.1
3493.6	-62154.1
3494.09	-62154.1
3494.59	-62154.1
3495.08	-62154.1
3495.57	-62154.1
3496.06	-62154.1
3496.56	-62154.1
3497.05	-62154.1
3497.54	-62154.1
3498.03	-62154.1
3498.52	-62154.1
3499.02	-62154.1
3499.51	-62154.1
3500	-62154.1
3500.49	-62154.1
3500.98	-62154.1
3501.48	-62154.1
3501.97	-62154.1
3502.46	-62154.1
3502.95	-62154.1
3503.45	-62154.1
3503.94	-62154.1
3504.43	-62154.1
3504.92	-62154.1
3505.41	-62154.1
3505.91	-62154.1
3506.4	-62154.1
3506.89	-61724.9
3507.38	-54552.7
3507.87	-37771
3508.37	-31634.4
3508.86	-31634.4
3509.35	-31634.4
3509.84	-31634.4
3510.33	-31634.4
3510.83	-31634.4
3511.32	-31634.4
3511.81	-31634.4
3512.3	-31634.4
3512.8	-31634.4
3513.29	-31634.4
3513.78	-31634.4
3514.27	-31634.4
3514.76	-31634.4
3515.26	-31634.4
3515.75	-31634.4
3516.24	-31634.4
3516.73	-31634.4
3517.22	-31634.4
3517.72	-31634.4
3518.21	-31634.4
3518.7	-31634.4
3519.19	-31634.4
3519.69	-31634.4
3520.18	-31634.4
3520.67	-31634.4
3521.16	-31634.4
3521.65	-31634.4
3522.15	-30748.6
3522.64	-13630.2
3523.13	57687.5
3523.62	138868
3524.11	138868
3524.61	138868
3525.1	138868
3525.59	138868
3526.08	138868
3526.57	138868
3527.07	138868
3527.56	138868
3528.05	138868
3528.54	138868
3529.04	138868
3529.53	138868
3530.02	138868
3530.51	138868
3531	138868
3531.5	138868
3531.99	138868
3532.48	138868
3532.97	138868
3533.46	138868
3533.96	138868
3534.45	138868
3534.94	138868
3535.43	138868
3535.93	138868
3536.42	138868
3536.91	138868
3537.4	138868
3537.89	140688
3538.39	169033
3538.88	215035
3539.37	229949
3539.86	229949
3540.35	229949
3540.85	229949
3541.34	229949
3541.83	229949
3542.32	229949
3542.82	229949
3543.31	229949
3543.8	229949
3544.29	229949
3544.78	229949
3545.28	229949
3545.77	229949
3546.26	229949
3546.75	229949
3547.24	229949
3547.74	229949
3548.23	229949
3548.72	229949
3549.21	229949
3549.71	229949
3550.2	229949
3550.69	229949
3551.18	229949
3551.67	229949
3552.17	229949
3552.66	229949
3553.15	229949
3553.64	229159
3554.13	213902
3554.63	149976
3555.12	80409.4
3555.61	80409.4
3556.1	80409.4
3556.59	80409.4
3557.09	80409.4
3557.58	80409.4
3558.07	80409.4
3558.56	80409.4
3559.06	80409.4
3559.55	80409.4
3560.04	80409.4
3560.53	80409.4
3561.02	80409.4
3561.52	80409.4
3562.01	80409.4
3562.5	80409.4
3562.99	80409.4
3563.48	80409.4
3563.98	80409.4
3564.47	80409.4
3564.96	80409.4
3565.45	80409.4
3565.95	80409.4
3566.44	80409.4
3566.93	80409.4
3567.42	80409.4
3567.91	80409.4
3568.41	80409.4
3568.9	80409.4
3569.39	74106.7
3569.88	-20684.8
3570.37	-130212
3570.87	-161854
3571.36	-161854
3571.85	-161854
3572.34	-161854
3572.83	-161854
3573.33	-161854
3573.82	-161854
3574.31	-161854
3574.8	-161854
3575.3	-161854
3575.79	-161854
3576.28	-161854
3576.77	-161854
3577.26	-161854
3577.76	-161854
3578.25	-161854
3578.74	-161854
3579.23	-161854
3579.72	-161854
3580.22	-161854
3580.71	-161854
3581.2	-161854
3581.69	-161854
3582.19	-161854
3582.68	-161854
3583.17	-161854
3583.66	-161854
3584.15	-163158
3584.65	-185950
3585.14	-253588
3585.63	-275334
3586.12	-275334
3586.61	-275334
3587.11	-275334
3587.6	-275334
3588.09	-275334
3588.58	-275334
3589.07	-275334
3589.57	-275334
3590.06	-275334
3590.55	-275334
3591.04	-275334
3591.54	-275334
3592.03	-275334
3592.52	-275334
3593.01	-275334
3593.5	-275334
3594	-275334
3594.49	-275334
3594.98	-275334
3595.47	-275334
3595.96	-275334
3596.46	-275334
3596.95	-275334
3597.44	-275334
3597.93	-275334
3598.43	-275334
3598.92	-275327
3599.41	-274738
3599.9	-267748
3600.39	-265480
3600.89	-265480
3601.38	-265480
3601.87	-265480
3602.36	-265480
3602.85	-265480
3603.35	-265480
3603.84	-265480
3604.33	-265480
3604.82	-265480
3605.32	-265480
3605.81	-265480
3606.3	-265480
3606.79	-265480
3607.28	-265480
3607.78	-265480
3608.27	-265480
3608.76	-265480
3609.25	-265480
3609.74	-265480
3610.24	-265480
3610.73	-265480
3611.22	-265480
3611.71	-265480
3612.2	-265480
3612.7	-265480
3613.19	-265480
3613.68	-265342
3614.17	-262802
3614.67	-253184
3615.16	-242142
3615.65	-242142
3616.14	-242142
3616.63	-242142
3617.13	-242142
3617.62	-242142
3618.11	-242142
3618.6	-242142
3619.09	-242142
3619.59	-242142
3620.08	-242142
3620.57	-242142
3621.06	-242142
3621.56	-242142
3622.05	-242142
3622.54	-242142
3623.03	-242142
3623.52	-242142
3624.02	-242142
3624.51	-242142
3625	-242142
3625.49	-242142
3625.98	-242142
3626.48	-242142
3626.97	-242142
3627.46	-242142
3627.95	-242142
3628.45	-242142
3628.94	-241234
3629.43	-226436
3629.92	-194291
3630.41	-186660
3630.91	-186660
3631.4	-186660
3631.89	-186660
3632.38	-186660
3632.87	-186660
3633.37	-186660
3633.86	-186660
3634.35	-186660
3634.84	-186660
3635.33	-186660
3635.83	-186660
3636.32	-186660
3636.81	-186660
3637.3	-186660
3637.8	-186660
3638.29	-186660
3638.78	-186660
3639.27	-186660
3639.76	-186660
3640.26	-186660
3640.75	-186660
3641.24	-186660
3641.73	-186660
3642.22	-186660
3642.72	-186660
3643.21	-186660
3643.7	-185181
3644.19	-160256
3644.69	-94061.8
3645.18	-48075.3
3645.67	-48075.3
3646.16	-48075.3
3646.65	-48075.3
3647.15	-48075.3
3647.64	-48075.3
3648.13	-48075.3
3648.62	-48075.3
3649.11	-48075.3
3649.61	-48075.3
3650.1	-48075.3
3650.59	-48075.3
3651.08	-48075.3
3651.57	-48075.3
3652.07	-48075.3
3652.56	-48075.3
3653.05	-48075.3
3653.54	-48075.3
3654.04	-48075.3
3654.53	-48075.3
3655.02	-48075.3
3655.51	-48075.3
3656	-48075.3
3656.5	-48075.3
3656.99	-48075.3
3657.48	-48075.3
3657.97	-48075.3
3658.46	-48075.3
3658.96	-48075.3
3659.45	-46276.5
3659.94	-15002.7
3660.43	71756.3
3660.93	90117.2
3661.42	90117.2
3661.91	90117.2
3662.4	90117.2
3662.89	90117.2
3663.39	90117.2
3663.88	90117.2
3664.37	90117.2
3664.86	90117.2
3665.35	90117.2
3665.85	90117.2
3666.34	90117.2
3666.83	90117.2
3667.32	90117.2
3667.82	90117.2
3668.31	90117.2
3668.8	90117.2
3669.29	90117.2
3669.78	90117.2
3670.28	90117.2
3670.77	90117.2
3671.26	90117.2
3671.75	90117.2
3672.24	90117.2
3672.74	90117.2
3673.23	90117.2
3673.72	90117.2
3674.21	90117.2
3674.7	90117.2
3675.2	90939.5
3675.69	104207
3676.18	130986
3676.67	135854
3677.17	135854
3677.66	135854
3678.15	135854
3678.64	135854
3679.13	135854
3679.63	135854
3680.12	135854
3680.61	135854
3681.1	135854
3681.59	135854
3682.09	135854
3682.58	135854
3683.07	135854
3683.56	135854
3684.06	135854
3684.55	135854
3685.04	135854
3685.53	135854
3686.02	135854
3686.52	135854
3687.01	135854
3687.5	135854
3687.99	135854
3688.48	135854
3688.98	135854
3689.47	135854
3689.96	135854
3690.45	135854
3690.94	135928
3691.44	137376
3691.93	143242
3692.42	144579
3692.91	144579
3693.41	144579
3693.9	144579
3694.39	144579
3694.88	144579
3695.37	144579
3695.87	144579
3696.36	144579
3696.85	144579
3697.34	144579
3697.83	144579
3698.33	144579
3698.82	144579
3699.31	144579
3699.8	144579
3700.3	144579
3700.79	144579
3701.28	144579
3701.77	144579
3702.26	144579
3702.76	144579
3703.25	144579
3703.74	144579
3704.23	144579
3704.72	144579
3705.22	144579
3705.71	144579
3706.2	144579
3706.69	145073
3707.19	153508
3707.68	175574
3708.17	189299
3708.66	189299
3709.15	189299
3709.65	189299
3710.14	189299
3710.63	189299
3711.12	189299
3711.61	189299
3712.11	189299
3712.6	189299
3713.09	189299
3713.58	189299
3714.07	189299
3714.57	189299
3715.06	189299
3715.55	189299
3716.04	189299
3716.54	189299
3717.03	189299
3717.52	189299
3718.01	189299
3718.5	189299
3719	189299
3719.49	189299
3719.98	189299
3720.47	189299
3720.96	189299
3721.46	189299
3721.95	189299
3722.44	189299
3722.93	190174
3723.43	203264
3723.92	215352
3724.41	217819
3724.9	217819
3725.39	217819
3725.89	217819
3726.38	217819
3726.87	217819
3727.36	217819
3727.85	217819
3728.35	217819
3728.84	217819
3729.33	217819
3729.82	217819
3730.31	217819
3730.81	217819
3731.3	217819
3731.79	217819
3732.28	217819
3732.78	217819
3733.27	217819
3733.76	217819
3734.25	217819
3734.74	217819
3735.24	217819
3735.73	217819
3736.22	217819
3736.71	217819
3737.21	217819
3737.7	217819
3738.19	217819
3738.68	217407
3739.17	210316
3739.67	191206
3740.16	180576
3740.65	180576
3741.14	180576
3741.63	180576
3742.13	180576
3742.62	180576
3743.11	180576
3743.6	180576
3744.09	180576
3744.59	180576
3745.08	180576
3745.57	180576
3746.06	180576
3746.56	180576
3747.05	180576
3747.54	180576
3748.03	180576
3748.52	180576
3749.02	180576
3749.51	180576
3750	180576
3750.49	180576
3750.98	180576
3751.48	180576
3751.97	180576
3752.46	180576
3752.95	180576
3753.45	180576
3753.94	180576
3754.43	180576
3754.92	179237
3755.41	159723
3755.91	148630
3756.4	146880
3756.89	146880
3757.38	146880
3757.87	146880
3758.37	146880
3758.86	146880
3759.35	146880
3759.84	146880
3760.33	146880
3760.83	146880
3761.32	146880
3761.81	146880
3762.3	146880
3762.8	146880
3763.29	146880
3763.78	146880
3764.27	146880
3764.76	146880
3765.26	146880
3765.75	146880
3766.24	146880
3766.73	146880
3767.22	146880
3767.72	146880
3768.21	146880
3768.7	146880
3769.19	146880
3769.69	146880
3770.18	146934
3770.67	147926
3771.16	151626
3771.65	155720
3772.15	155720
3772.64	155720
3773.13	155720
3773.62	155720
3774.11	155720
3774.61	155720
3775.1	155720
3775.59	155720
3776.08	155720
3776.58	155720
3777.07	155720
3777.56	155720
3778.05	155720
3778.54	155720
3779.04	155720
3779.53	155720
3780.02	155720
3780.51	155720
3781	155720
3781.5	155720
3781.99	155720
3782.48	155720
3782.97	155720
3783.46	155720
3783.96	155720
3784.45	155720
3784.94	155720
3785.43	155720
3785.93	155720
3786.42	153638
3786.91	123639
3787.4	105915
3787.89	103005
3788.39	103005
3788.88	103005
3789.37	103005
3789.86	103005
3790.35	103005
3790.85	103005
3791.34	103005
3791.83	103005
3792.32	103005
3792.82	103005
3793.31	103005
3793.8	103005
3794.29	103005
3794.78	103005
3795.28	103005
3795.77	103005
3796.26	103005
3796.75	103005
3797.24	103005
3797.74	103005
3798.23	103005
3798.72	103005
3799.21	103005
3799.7	103005
3800.2	103005
3800.69	103005
3801.18	103005
3801.67	101334
3802.17	71842.2
3802.66	-18513.2
3803.15	-83976.4
3803.64	-83976.4
3804.13	-83976.4
3804.63	-83976.4
3805.12	-83976.4
3805.61	-83976.4
3806.1	-83976.4
3806.59	-83976.4
3807.09	-83976.4
3807.58	-83976.4
3808.07	-83976.4
3808.56	-83976.4
3809.06	-83976.4
3809.55	-83976.4
3810.04	-83976.4
3810.53	-83976.4
3811.02	-83976.4
3811.52	-83976.4
3812.01	-83976.4
3812.5	-83976.4
3812.99	-83976.4
3813.48	-83976.4
3813.98	-83976.4
3814.47	-83976.4
3814.96	-83976.4
3815.45	-83976.4
3815.95	-83976.4
3816.44	-83976.4
3816.93	-90409.1
3817.42	-186561
3817.91	-274137
3818.41	-292315
3818.9	-292315
3819.39	-292315
3819.88	-292315
3820.37	-292315
3820.87	-292315
3821.36	-292315
3821.85	-292315
3822.34	-292315
3822.83	-292315
3823.33	-292315
3823.82	-292315
3824.31	-292315
3824.8	-292315
3825.3	-292315
3825.79	-292315
3826.28	-292315
3826.77	-292315
3827.26	-292315
3827.76	-292315
3828.25	-292315
3828.74	-292315
3829.23	-292315
3829.72	-292315
3830.22	-292315
3830.71	-292315
3831.2	-293152
3831.69	-307316
3832.19	-343395
3832.68	-366178
3833.17	-366178
3833.66	-366178
3834.15	-366178
3834.65	-366178
3835.14	-366178
3835.63	-366178
3836.12	-366178
3836.61	-366178
3837.11	-366178
3837.6	-366178
3838.09	-366178
3838.58	-366178
3839.07	-366178
3839.57	-366178
3840.06	-366178
3840.55	-366178
3841.04	-366178
3841.54	-366178
3842.03	-366178
3842.52	-366178
3843.01	-366178
3843.5	-366178
3844	-366178
3844.49	-366178
3844.98	-366178
3845.47	-366178
3845.96	-364254
3846.46	-334778
3846.95	-298457
3847.44	-292680
3847.93	-292680
3848.43	-292680
3848.92	-292680
3849.41	-292680
3849.9	-292680
3850.39	-292680
3850.89	-292680
3851.38	-292680
3851.87	-292680
3852.36	-292680
3852.85	-292680
3853.35	-292680
3853.84	-292680
3854.33	-292680
3854.82	-292680
3855.32	-292680
3855.81	-292680
3856.3	-292680
3856.79	-292680
3857.28	-292680
3857.78	-292680
3858.27	-292680
3858.76	-292680
3859.25	-292680
3859.74	-292680
3860.24	-290263
3860.73	-252114
3861.22	-183509
3861.71	-157445
3862.21	-157445
3862.7	-157445
3863.19	-157445
3863.68	-157445
3864.17	-157445
3864.67	-157445
3865.16	-157445
3865.65	-157445
3866.14	-157445
3866.63	-157445
3867.13	-157445
3867.62	-157445
3868.11	-157445
3868.6	-157445
3869.09	-157445
3869.59	-157445
3870.08	-157445
3870.57	-157445
3871.06	-157445
3871.56	-157445
3872.05	-157445
3872.54	-157445
3873.03	-157445
3873.52	-157445
3874.02	-157445
3874.51	-157445
3875	-157430
3875.49	-149235
3875.98	-36760.7
3876.48	-26647.9
3876.97	-26647.9
3877.46	-26647.9
3877.95	-26647.9
3878.45	-26647.9
3878.94	-26647.9
3879.43	-26647.9
3879.92	-26647.9
3880.41	-26647.9
3880.91	-26647.9
3881.4	-26647.9
3881.89	-26647.9
3882.38	-26647.9
3882.87	-26647.9
3883.37	-26647.9
3883.86	-26647.9
3884.35	-26647.9
3884.84	-26647.9
3885.33	-26647.9
3885.83	-26647.9
3886.32	-26647.9
3886.81	-26647.9
3887.3	-26647.9
3887.8	-26647.9
3888.29	-26647.9
3888.78	-26647.9
3889.27	-26647.9
3889.76	-26647.9
3890.26	-24563.2
3890.75	7631.47
3891.24	50556.4
3891.73	57394
3892.22	57394
3892.72	57394
3893.21	57394
3893.7	57394
3894.19	57394
3894.69	57394
3895.18	57394
3895.67	57394
3896.16	57394
3896.65	57394
3897.15	57394
3897.64	57394
3898.13	57394
3898.62	57394
3899.11	57394
3899.61	57394
3900.1	57394
3900.59	57394
3901.08	57394
3901.57	57394
3902.07	57394
3902.56	57394
3903.05	57394
3903.54	57394
3904.04	57394
3904.53	57394
3905.02	57394
3905.51	57865.6
3906	64845.6
3906.5	70224.9
3906.99	70539.9
3907.48	70539.9
3907.97	70539.9
3908.46	70539.9
3908.96	70539.9
3909.45	70539.9
3909.94	70539.9
3910.43	70539.9
3910.93	70539.9
3911.42	70539.9
3911.91	70539.9
3912.4	70539.9
3912.89	70539.9
3913.39	70539.9
3913.88	70539.9
3914.37	70539.9
3914.86	70539.9
3915.35	70539.9
3915.85	70539.9
3916.34	70539.9
3916.83	70539.9
3917.32	70539.9
3917.82	70539.9
3918.31	70539.9
3918.8	70539.9
3919.29	70539.9
3919.78	70539.9
3920.28	70478.5
3920.77	69116.1
3921.26	61565.5
3921.75	54453.8
3922.24	54453.8
3922.74	54453.8
3923.23	54453.8
3923.72	54453.8
3924.21	54453.8
3924.7	54453.8
3925.2	54453.8
3925.69	54453.8
3926.18	54453.8
3926.67	54453.8
3927.17	54453.8
3927.66	54453.8
3928.15	54453.8
3928.64	54453.8
3929.13	54453.8
3929.63	54453.8
3930.12	54453.8
3930.61	54453.8
3931.1	54453.8
3931.59	54453.8
3932.09	54453.8
3932.58	54453.8
3933.07	54453.8
3933.56	54453.8
3934.06	54453.8
3934.55	54453.8
3935.04	54453.8
3935.53	54483.1
3936.02	56885.7
3936.52	84432.8
3937.01	84934.2
3937.5	84934.2
3937.99	84934.2
3938.48	84934.2
3938.98	84934.2
3939.47	84934.2
3939.96	84934.2
3940.45	84934.2
3940.95	84934.2
3941.44	84934.2
3941.93	84934.2
3942.42	84934.2
3942.91	84934.2
3943.41	84934.2
3943.9	84934.2
3944.39	84934.2
3944.88	84934.2
3945.37	84934.2
3945.87	84934.2
3946.36	84934.2
3946.85	84934.2
3947.34	84934.2
3947.83	84934.2
3948.33	84934.2
3948.82	84934.2
3949.31	84934.2
3949.8	84934.2
3950.3	84934.2
3950.79	86623.6
3951.28	112624
3951.77	150604
3952.26	165247
3952.76	165247
3953.25	165247
3953.74	165247
3954.23	165247
3954.72	165247
3955.22	165247
3955.71	165247
3956.2	165247
3956.69	165247
3957.19	165247
3957.68	165247
3958.17	165247
3958.66	165247
3959.15	165247
3959.65	165247
3960.14	165247
3960.63	165247
3961.12	165247
3961.61	165247
3962.11	165247
3962.6	165247
3963.09	165247
3963.58	165247
3964.07	165247
3964.57	165247
3965.06	165247
3965.55	165290
3966.04	167793
3966.54	196006
3967.03	221107
3967.52	221107
3968.01	221107
3968.5	221107
3969	221107
3969.49	221107
3969.98	221107
3970.47	221107
3970.96	221107
3971.46	221107
3971.95	221107
3972.44	221107
3972.93	221107
3973.43	221107
3973.92	221107
3974.41	221107
3974.9	221107
3975.39	221107
3975.89	221107
3976.38	221107
3976.87	221107
3977.36	221107
3977.85	221107
3978.35	221107
3978.84	221107
3979.33	221107
3979.82	221107
3980.32	221107
3980.81	221107
3981.3	221012
3981.79	218822
3982.28	206012
3982.78	195548
3983.27	195548
3983.76	195548
3984.25	195548
3984.74	195548
3985.24	195548
3985.73	195548
3986.22	195548
3986.71	195548
3987.2	195548
3987.7	195548
3988.19	195548
3988.68	195548
3989.17	195548
3989.67	195548
3990.16	195548
3990.65	195548
3991.14	195548
3991.63	195548
3992.13	195548
3992.62	195548
3993.11	195548
3993.6	195548
3994.09	195548
3994.59	195548
3995.08	195548
3995.57	195548
3996.06	195531
3996.56	194739
3997.05	180343
3997.54	87688.9
3998.03	87688.9
3998.52	87688.9
3999.02	87688.9
3999.51	87688.9
4000	87688.9
4000.49	87688.9
4000.98	87688.9
4001.48	87688.9
4001.97	87688.9
4002.46	87688.9
4002.95	87688.9
4003.44	87688.9
4003.94	87688.9
4004.43	87688.9
4004.92	87688.9
4005.41	87688.9
4005.91	87688.9
4006.4	87688.9
4006.89	87688.9
4007.38	87688.9
4007.87	87688.9
4008.37	87688.9
4008.86	87688.9
4009.35	87688.9
4009.84	87688.9
4010.33	87688.9
4010.83	87688.9
4011.32	85675.6
4011.81	52376
4012.3	-22408.9
4012.8	-63423.7
4013.29	-63423.7
4013.78	-63423.7
4014.27	-63423.7
4014.76	-63423.7
4015.26	-63423.7
4015.75	-63423.7
4016.24	-63423.7
4016.73	-63423.7
4017.22	-63423.7
4017.72	-63423.7
4018.21	-63423.7
4018.7	-63423.7
4019.19	-63423.7
4019.69	-63423.7
4020.18	-63423.7
4020.67	-63423.7
4021.16	-63423.7
4021.65	-63423.7
4022.15	-63423.7
4022.64	-63423.7
4023.13	-63423.7
4023.62	-63423.7
4024.11	-63423.7
4024.61	-63423.7
4025.1	-63423.7
4025.59	-63665.5
4026.08	-69622.8
4026.57	-110368
4027.07	-176305
4027.56	-176305
4028.05	-176305
4028.54	-176305
4029.04	-176305
4029.53	-176305
4030.02	-176305
4030.51	-176305
4031	-176305
4031.5	-176305
4031.99	-176305
4032.48	-176305
4032.97	-176305
4033.46	-176305
4033.96	-176305
4034.45	-176305
4034.94	-176305
4035.43	-176305
4035.93	-176305
4036.42	-176305
4036.91	-176305
4037.4	-176305
4037.89	-176305
4038.39	-176305
4038.88	-176305
4039.37	-176305
4039.86	-176305
4040.35	-176230
4040.85	-175129
4041.34	-174299
4041.83	-174161
4042.32	-174161
4042.81	-174161
4043.31	-174161
4043.8	-174161
4044.29	-174161
4044.78	-174161
4045.28	-174161
4045.77	-174161
4046.26	-174161
4046.75	-174161
4047.24	-174161
4047.74	-174161
4048.23	-174161
4048.72	-174161
4049.21	-174161
4049.71	-174161
4050.2	-174161
4050.69	-174161
4051.18	-174161
4051.67	-174161
4052.17	-174161
4052.66	-174161
4053.15	-174161
4053.64	-174161
4054.13	-173114
4054.63	-154115
4055.12	-90953.1
4055.61	-86000.9
4056.1	-86000.9
4056.59	-86000.9
4057.09	-86000.9
4057.58	-86000.9
4058.07	-86000.9
4058.56	-86000.9
4059.06	-86000.9
4059.55	-86000.9
4060.04	-86000.9
4060.53	-86000.9
4061.02	-86000.9
4061.52	-86000.9
4062.01	-86000.9
4062.5	-86000.9
4062.99	-86000.9
4063.48	-86000.9
4063.98	-86000.9
4064.47	-86000.9
4064.96	-86000.9
4065.45	-86000.9
4065.95	-86000.9
4066.44	-86000.9
4066.93	-86000.9
4067.42	-86000.9
4067.91	-86000.9
4068.41	-84407
4068.9	-59836.1
4069.39	-27497.8
4069.88	-18462.9
4070.37	-18462.9
4070.87	-18462.9
4071.36	-18462.9
4071.85	-18462.9
4072.34	-18462.9
4072.83	-18462.9
4073.33	-18462.9
4073.82	-18462.9
4074.31	-18462.9
4074.8	-18462.9
4075.3	-18462.9
4075.79	-18462.9
4076.28	-18462.9
4076.77	-18462.9
4077.26	-18462.9
4077.76	-18462.9
4078.25	-18462.9
4078.74	-18462.9
4079.23	-18462.9
4079.72	-18462.9
4080.22	-18462.9
4080.71	-18462.9
4081.2	-18462.9
4081.69	-18462.9
4082.19	-18462.9
4082.68	-18210.2
4083.17	-13944.6
4083.66	-3522.99
4084.15	-676.213
4084.65	-676.213
4085.14	-676.213
4085.63	-676.213
4086.12	-676.213
4086.61	-676.213
4087.11	-676.213
4087.6	-676.213
4088.09	-676.213
4088.58	-676.213
4089.08	-676.213
4089.57	-676.213
4090.06	-676.213
4090.55	-676.213
4091.04	-676.213
4091.54	-676.213
4092.03	-676.213
4092.52	-676.213
4093.01	-676.213
4093.5	-676.213
4094	-676.213
4094.49	-676.213
4094.98	-676.213
4095.47	-676.213
4095.96	-676.213
4096.46	-676.213
4096.95	517.512
4097.44	17690.2
4097.93	24387.6
4098.43	25121.3
4098.92	25121.3
4099.41	25121.3
4099.9	25121.3
4100.39	25121.3
4100.89	25121.3
4101.38	25121.3
4101.87	25121.3
4102.36	25121.3
4102.85	25121.3
4103.35	25121.3
4103.84	25121.3
4104.33	25121.3
4104.82	25121.3
4105.31	25121.3
4105.81	25121.3
4106.3	25121.3
4106.79	25121.3
4107.28	25121.3
4107.78	25121.3
4108.27	25121.3
4108.76	25121.3
4109.25	25121.3
4109.74	25121.3
4110.24	25121.3
4110.73	25548.4
4111.22	32390.8
4111.71	45883.7
4112.21	51965.7
4112.7	51965.7
4113.19	51965.7
4113.68	51965.7
4114.17	51965.7
4114.67	51965.7
4115.16	51965.7
4115.65	51965.7
4116.14	51965.7
4116.63	51965.7
4117.13	51965.7
4117.62	51965.7
4118.11	51965.7
4118.6	51965.7
4119.09	51965.7
4119.59	51965.7
4120.08	51965.7
4120.57	51965.7
4121.06	51965.7
4121.56	51965.7
4122.05	51965.7
4122.54	51965.7
4123.03	51965.7
4123.52	51965.7
4124.02	51965.7
4124.51	51965.7
4125	50345.1
4125.49	26756
4125.98	13696.4
4126.48	12678.5
4126.97	12678.5
4127.46	12678.5
4127.95	12678.5
4128.45	12678.5
4128.94	12678.5
4129.43	12678.5
4129.92	12678.5
4130.41	12678.5
4130.91	12678.5
4131.4	12678.5
4131.89	12678.5
4132.38	12678.5
4132.87	12678.5
4133.37	12678.5
4133.86	12678.5
4134.35	12678.5
4134.84	12678.5
4135.33	12678.5
4135.83	12678.5
4136.32	12678.5
4136.81	12678.5
4137.3	12678.5
4137.8	12678.5
4138.29	12678.5
4138.78	10604.3
4139.27	-20757.6
4139.76	-53762.7
4140.26	-56052.2
4140.75	-56052.2
4141.24	-56052.2
4141.73	-56052.2
4142.22	-56052.2
4142.72	-56052.2
4143.21	-56052.2
4143.7	-56052.2
4144.19	-56052.2
4144.69	-56052.2
4145.18	-56052.2
4145.67	-56052.2
4146.16	-56052.2
4146.65	-56052.2
4147.15	-56052.2
4147.64	-56052.2
4148.13	-56052.2
4148.62	-56052.2
4149.11	-56052.2
4149.61	-56052.2
4150.1	-56052.2
4150.59	-56052.2
4151.08	-56052.2
4151.57	-56052.2
4152.07	-56040
4152.56	-55650.7
4153.05	-52563.2
4153.54	-51731.7
4154.04	-51731.7
4154.53	-51731.7
4155.02	-51731.7
4155.51	-51731.7
4156	-51731.7
4156.5	-51731.7
4156.99	-51731.7
4157.48	-51731.7
4157.97	-51731.7
4158.46	-51731.7
4158.96	-51731.7
4159.45	-51731.7
4159.94	-51731.7
4160.43	-51731.7
4160.93	-51731.7
4161.42	-51731.7
4161.91	-51731.7
4162.4	-51731.7
4162.89	-51731.7
4163.39	-51731.7
4163.88	-51731.7
4164.37	-51731.7
4164.86	-51731.7
4165.35	-51727.7
4165.85	-50143.6
4166.34	-27821.7
4166.83	-14820.4
4167.32	-14820.4
4167.82	-14820.4
4168.31	-14820.4
4168.8	-14820.4
4169.29	-14820.4
4169.78	-14820.4
4170.28	-14820.4
4170.77	-14820.4
4171.26	-14820.4
4171.75	-14820.4
4172.24	-14820.4
4172.74	-14820.4
4173.23	-14820.4
4173.72	-14820.4
4174.21	-14820.4
4174.71	-14820.4
4175.2	-14820.4
4175.69	-14820.4
4176.18	-14820.4
4176.67	-14820.4
4177.17	-14820.4
4177.66	-14820.4
4178.15	-14820.4
4178.64	-14820.4
4179.13	-15216.5
4179.63	-22733
4180.12	-51347.3
4180.61	-68888.2
4181.1	-68888.2
4181.59	-68888.2
4182.09	-68888.2
4182.58	-68888.2
4183.07	-68888.2
4183.56	-68888.2
4184.06	-68888.2
4184.55	-68888.2
4185.04	-68888.2
4185.53	-68888.2
4186.02	-68888.2
4186.52	-68888.2
4187.01	-68888.2
4187.5	-68888.2
4187.99	-68888.2
4188.48	-68888.2
4188.98	-68888.2
4189.47	-68888.2
4189.96	-68888.2
4190.45	-68888.2
4190.94	-68888.2
4191.44	-68888.2
4191.93	-68888.2
4192.42	-68990.2
4192.91	-74105.6
4193.41	-127129
4193.9	-143592
4194.39	-143592
4194.88	-143592
4195.37	-143592
4195.87	-143592
4196.36	-143592
4196.85	-143592
4197.34	-143592
4197.83	-143592
4198.33	-143592
4198.82	-143592
4199.31	-143592
4199.8	-143592
4200.3	-143592
4200.79	-143592
4201.28	-143592
4201.77	-143592
4202.26	-143592
4202.76	-143592
4203.25	-143592
4203.74	-143592
4204.23	-143592
4204.72	-143592
4205.22	-143592
4205.71	-141827
4206.2	-112949
4206.69	-52869.2
4207.19	-30333.2
4207.68	-30333.2
4208.17	-30333.2
4208.66	-30333.2
4209.15	-30333.2
4209.65	-30333.2
4210.14	-30333.2
4210.63	-30333.2
4211.12	-30333.2
4211.61	-30333.2
4212.11	-30333.2
4212.6	-30333.2
4213.09	-30333.2
4213.58	-30333.2
4214.08	-30333.2
4214.57	-30333.2
4215.06	-30333.2
4215.55	-30333.2
4216.04	-30333.2
4216.54	-30333.2
4217.03	-30333.2
4217.52	-30333.2
4218.01	-30333.2
4218.5	-30333.2
4219	-30333.2
4219.49	-15276.6
4219.98	195803
4220.47	240614
4220.96	243469
4221.46	243469
4221.95	243469
4222.44	243469
4222.93	243469
4223.43	243469
4223.92	243469
4224.41	243469
4224.9	243469
4225.39	243469
4225.89	243469
4226.38	243469
4226.87	243469
4227.36	243469
4227.85	243469
4228.35	243469
4228.84	243469
4229.33	243469
4229.82	243469
4230.31	243469
4230.81	243469
4231.3	243469
4231.79	243469
4232.28	243469
4232.78	243469
4233.27	244416
4233.76	261998
4234.25	326051
4234.74	381475
4235.24	381475
4235.73	381475
4236.22	381475
4236.71	381475
4237.2	381475
4237.7	381475
4238.19	381475
4238.68	381475
4239.17	381475
4239.67	381475
4240.16	381475
4240.65	381475
4241.14	381475
4241.63	381475
4242.13	381475
4242.62	381475
4243.11	381475
4243.6	381475
4244.09	381475
4244.59	381475
4245.08	381475
4245.57	381475
4246.06	381475
4246.56	381475
4247.05	381475
4247.54	381475
4248.03	372206
4248.52	242430
4249.02	239096
4249.51	239042
4250	239042
4250.49	239042
4250.98	239042
4251.48	239042
4251.97	239042
4252.46	239042
4252.95	239042
4253.45	239042
4253.94	239042
4254.43	239042
4254.92	239042
4255.41	239042
4255.91	239042
4256.4	239042
4256.89	239042
4257.38	239042
4257.87	239042
4258.37	239042
4258.86	239042
4259.35	239042
4259.84	239042
4260.33	239042
4260.83	239042
4261.32	239042
4261.81	234348
4262.3	161243
4262.8	54004.1
4263.29	10150.9
4263.78	10150.9
4264.27	10150.9
4264.76	10150.9
4265.26	10150.9
4265.75	10150.9
4266.24	10150.9
4266.73	10150.9
4267.22	10150.9
4267.72	10150.9
4268.21	10150.9
4268.7	10150.9
4269.19	10150.9
4269.69	10150.9
4270.18	10150.9
4270.67	10150.9
4271.16	10150.9
4271.65	10150.9
4272.15	10150.9
4272.64	10150.9
4273.13	10150.9
4273.62	10150.9
4274.11	10150.9
4274.61	10150.9
4275.1	9521.22
4275.59	-4234.47
4276.08	-74375.1
4276.57	-98104.6
4277.07	-98104.6
4277.56	-98104.6
4278.05	-98104.6
4278.54	-98104.6
4279.04	-98104.6
4279.53	-98104.6
4280.02	-98104.6
4280.51	-98104.6
4281	-98104.6
4281.5	-98104.6
4281.99	-98104.6
4282.48	-98104.6
4282.97	-98104.6
4283.46	-98104.6
4283.96	-98104.6
4284.45	-98104.6
4284.94	-98104.6
4285.43	-98104.6
4285.93	-98104.6
4286.42	-98104.6
4286.91	-98104.6
4287.4	-98104.6
4287.89	-98104.6
4288.39	-98104.6
4288.88	-99008.6
4289.37	-112337
4289.86	-122017
4290.35	-123859
4290.85	-123859
4291.34	-123859
4291.83	-123859
4292.32	-123859
4292.82	-123859
4293.31	-123859
4293.8	-123859
4294.29	-123859
4294.78	-123859
4295.28	-123859
4295.77	-123859
4296.26	-123859
4296.75	-123859
4297.24	-123859
4297.74	-123859
4298.23	-123859
4298.72	-123859
4299.21	-123859
4299.71	-123859
4300.2	-123859
4300.69	-123859
4301.18	-123859
4301.67	-123859
4302.17	-124648
4302.66	-138052
4303.15	-171001
4303.64	-172487
4304.13	-172487
4304.63	-172487
4305.12	-172487
4305.61	-172487
4306.1	-172487
4306.59	-172487
4307.09	-172487
4307.58	-172487
4308.07	-172487
4308.56	-172487
4309.06	-172487
4309.55	-172487
4310.04	-172487
4310.53	-172487
4311.02	-172487
4311.52	-172487
4312.01	-172487
4312.5	-172487
4312.99	-172487
4313.48	-172487
4313.98	-172487
4314.47	-172487
4314.96	-172487
4315.45	-173767
4315.94	-192512
4316.44	-207742
4316.93	-210278
4317.42	-210278
4317.91	-210278
4318.41	-210278
4318.9	-210278
4319.39	-210278
4319.88	-210278
4320.37	-210278
4320.87	-210278
4321.36	-210278
4321.85	-210278
4322.34	-210278
4322.83	-210278
4323.33	-210278
4323.82	-210278
4324.31	-210278
4324.8	-210278
4325.3	-210278
4325.79	-210278
4326.28	-210278
4326.77	-210278
4327.26	-210278
4327.76	-210278
4328.25	-210274
4328.74	-209151
4329.23	-192587
4329.72	-170680
4330.22	-170680
4330.71	-170680
4331.2	-170680
4331.69	-170680
4332.19	-170680
4332.68	-170680
4333.17	-170680
4333.66	-170680
4334.15	-170680
4334.65	-170680
4335.14	-170680
4335.63	-170680
4336.12	-170680
4336.61	-170680
4337.11	-170680
4337.6	-170680
4338.09	-170680
4338.58	-170680
4339.08	-170680
4339.57	-170680
4340.06	-170680
4340.55	-170680
4341.04	-170680
4341.54	-170680
4342.03	-168079
4342.52	-129625
4343.01	-94558.2
4343.5	-93631.2
4344	-93631.2
4344.49	-93631.2
4344.98	-93631.2
4345.47	-93631.2
4345.96	-93631.2
4346.46	-93631.2
4346.95	-93631.2
4347.44	-93631.2
4347.93	-93631.2
4348.43	-93631.2
4348.92	-93631.2
4349.41	-93631.2
4349.9	-93631.2
4350.39	-93631.2
4350.89	-93631.2
4351.38	-93631.2
4351.87	-93631.2
4352.36	-93631.2
4352.85	-93631.2
4353.35	-93631.2
4353.84	-93631.2
4354.33	-93631.2
4354.82	-93631.2
4355.31	-92442.4
4355.81	-74021.1
4356.3	-48220.1
4356.79	-38180.3
4357.28	-38180.3
4357.78	-38180.3
4358.27	-38180.3
4358.76	-38180.3
4359.25	-38180.3
4359.74	-38180.3
4360.24	-38180.3
4360.73	-38180.3
4361.22	-38180.3
4361.71	-38180.3
4362.21	-38180.3
4362.7	-38180.3
4363.19	-38180.3
4363.68	-38180.3
4364.17	-38180.3
4364.67	-38180.3
4365.16	-38180.3
4365.65	-38180.3
4366.14	-38180.3
4366.63	-38180.3
4367.13	-38180.3
4367.62	-38180.3
4368.11	-38180.3
4368.6	-37981
4369.09	-33579.4
4369.59	-9469.45
4370.08	15191
4370.57	15191
4371.06	15191
4371.56	15191
4372.05	15191
4372.54	15191
4373.03	15191
4373.52	15191
4374.02	15191
4374.51	15191
4375	15191
4375.49	15191
4375.98	15191
4376.48	15191
4376.97	15191
4377.46	15191
4377.95	15191
4378.45	15191
4378.94	15191
4379.43	15191
4379.92	15191
4380.41	15191
4380.91	15191
4381.4	15191
4381.89	15191
4382.38	15922
4382.87	28903.6
4383.37	68608.6
4383.86	84787.4
4384.35	84787.4
4384.84	84787.4
4385.33	84787.4
4385.83	84787.4
4386.32	84787.4
4386.81	84787.4
4387.3	84787.4
4387.8	84787.4
4388.29	84787.4
4388.78	84787.4
4389.27	84787.4
4389.76	84787.4
4390.26	84787.4
4390.75	84787.4
4391.24	84787.4
4391.73	84787.4
4392.22	84787.4
4392.72	84787.4
4393.21	84787.4
4393.7	84787.4
4394.19	84787.4
4394.69	84787.4
4395.18	84787.4
4395.67	84787.4
4396.16	85360.7
4396.65	95038.9
4397.15	119378
4397.64	119488
4398.13	119488
4398.62	119488
4399.11	119488
4399.61	119488
4400.1	119488
4400.59	119488
4401.08	119488
4401.58	119488
4402.07	119488
4402.56	119488
4403.05	119488
4403.54	119488
4404.04	119488
4404.53	119488
4405.02	119488
4405.51	119488
4406	119488
4406.5	119488
4406.99	119488
4407.48	119488
4407.97	119488
4408.46	119488
4408.96	119488
4409.45	119488
4409.94	119342
4410.43	115604
4410.93	91519.5
4411.42	85632
4411.91	85632
4412.4	85632
4412.89	85632
4413.39	85632
4413.88	85632
4414.37	85632
4414.86	85632
4415.35	85632
4415.85	85632
4416.34	85632
4416.83	85632
4417.32	85632
4417.81	85632
4418.31	85632
4418.8	85632
4419.29	85632
4419.78	85632
4420.28	85632
4420.77	85632
4421.26	85632
4421.75	85632
4422.24	85632
4422.74	85632
4423.23	85226.4
4423.72	78209.4
4424.21	57348.4
4424.71	39178.3
4425.2	39178.3
4425.69	39178.3
4426.18	39178.3
4426.67	39178.3
4427.17	39178.3
4427.66	39178.3
4428.15	39178.3
4428.64	39178.3
4429.13	39178.3
4429.63	39178.3
4430.12	39178.3
4430.61	39178.3
4431.1	39178.3
4431.59	39178.3
4432.09	39178.3
4432.58	39178.3
4433.07	39178.3
4433.56	39178.3
4434.06	39178.3
4434.55	39178.3
4435.04	39178.3
4435.53	39178.3
4436.02	39178.3
4436.52	39178.3
4437.01	39354.3
4437.5	42438.5
4437.99	51171.4
4438.48	51782.6
4438.98	51782.6
4439.47	51782.6
4439.96	51782.6
4440.45	51782.6
4440.95	51782.6
4441.44	51782.6
4441.93	51782.6
4442.42	51782.6
4442.91	51782.6
4443.41	51782.6
4443.9	51782.6
4444.39	51782.6
4444.88	51782.6
4445.37	51782.6
4445.87	51782.6
4446.36	51782.6
4446.85	51782.6
4447.34	51782.6
4447.83	51782.6
4448.33	51782.6
4448.82	51782.6
4449.31	51782.6
4449.8	51782.6
4450.3	52380.9
4450.79	62804.4
4451.28	94229.8
4451.77	116220
4452.26	116220
4452.76	116220
4453.25	116220
4453.74	116220
4454.23	116220
4454.72	116220
4455.22	116220
4455.71	116220
4456.2	116220
4456.69	116220
4457.19	116220
4457.68	116220
4458.17	116220
4458.66	116220
4459.15	116220
4459.65	116220
4460.14	116220
4460.63	116220
4461.12	116220
4461.61	116220
4462.11	116220
4462.6	116220
4463.09	116220
4463.58	116291
4464.07	118184
4464.57	132614
4465.06	158497
4465.55	158497
4466.04	158497
4466.54	158497
4467.03	158497
4467.52	158497
4468.01	158497
4468.5	158497
4469	158497
4469.49	158497
4469.98	158497
4470.47	158497
4470.96	158497
4471.46	158497
4471.95	158497
4472.44	158497
4472.93	158497
4473.43	158497
4473.92	158497
4474.41	158497
4474.9	158497
4475.39	158497
4475.89	158497
4476.38	158497
4476.87	158497
4477.36	158296
4477.85	153889
4478.35	130523
4478.84	118568
4479.33	118568
4479.82	118568
4480.32	118568
4480.81	118568
4481.3	118568
4481.79	118568
4482.28	118568
4482.78	118568
4483.27	118568
4483.76	118568
4484.25	118568
4484.74	118568
4485.24	118568
4485.73	118568
4486.22	118568
4486.71	118568
4487.21	118568
4487.7	118568
4488.19	118568
4488.68	118568
4489.17	118568
4489.67	118568
4490.16	118568
4490.65	118568
4491.14	117208
4491.63	92872.4
4492.13	18383.7
4492.62	14790.4
4493.11	14790.4
4493.6	14790.4
4494.09	14790.4
4494.59	14790.4
4495.08	14790.4
4495.57	14790.4
4496.06	14790.4
4496.56	14790.4
4497.05	14790.4
4497.54	14790.4
4498.03	14790.4
4498.52	14790.4
4499.02	14790.4
4499.51	14790.4
4500	14790.4
4500.49	14790.4
4500.98	14790.4
4501.48	14790.4
4501.97	14790.4
4502.46	14790.4
4502.95	14790.4
4503.44	14790.4
4503.94	14790.4
4504.43	11721.7
4504.92	-32898.5
4505.41	-64380.9
4505.91	-70176.8
4506.4	-70176.8
4506.89	-70176.8
4507.38	-70176.8
4507.87	-70176.8
4508.37	-70176.8
4508.86	-70176.8
4509.35	-70176.8
4509.84	-70176.8
4510.33	-70176.8
4510.83	-70176.8
4511.32	-70176.8
4511.81	-70176.8
4512.3	-70176.8
4512.8	-70176.8
4513.29	-70176.8
4513.78	-70176.8
4514.27	-70176.8
4514.76	-70176.8
4515.26	-70176.8
4515.75	-70176.8
4516.24	-70176.8
4516.73	-70176.8
4517.22	-70243
4517.72	-71785.2
4518.21	-81492.1
4518.7	-94514
4519.19	-94514
4519.69	-94514
4520.18	-94514
4520.67	-94514
4521.16	-94514
4521.65	-94514
4522.15	-94514
4522.64	-94514
4523.13	-94514
4523.62	-94514
4524.11	-94514
4524.61	-94514
4525.1	-94514
4525.59	-94514
4526.08	-94514
4526.58	-94514
4527.07	-94514
4527.56	-94514
4528.05	-94514
4528.54	-94514
4529.04	-94514
4529.53	-94514
4530.02	-94514
4530.51	-94700.9
4531	-98770.5
4531.5	-119206
4531.99	-120464
4532.48	-120464
4532.97	-120464
4533.46	-120464
4533.96	-120464
4534.45	-120464
4534.94	-120464
4535.43	-120464
4535.93	-120464
4536.42	-120464
4536.91	-120464
4537.4	-120464
4537.89	-120464
4538.39	-120464
4538.88	-120464
4539.37	-120464
4539.86	-120464
4540.35	-120464
4540.85	-120464
4541.34	-120464
4541.83	-120464
4542.32	-120464
4542.81	-120464
4543.31	-120464
4543.8	-122822
4544.29	-157849
4544.78	-192358
4545.28	-196971
4545.77	-196971
4546.26	-196971
4546.75	-196971
4547.24	-196971
4547.74	-196971
4548.23	-196971
4548.72	-196971
4549.21	-196971
4549.7	-196971
4550.2	-196971
4550.69	-196971
4551.18	-196971
4551.67	-196971
4552.17	-196971
4552.66	-196971
4553.15	-196971
4553.64	-196971
4554.13	-196971
4554.63	-196971
4555.12	-196971
4555.61	-196971
4556.1	-196971
4556.59	-197122
4557.09	-200476
4557.58	-218979
4558.07	-228331
4558.56	-228331
4559.06	-228331
4559.55	-228331
4560.04	-228331
4560.53	-228331
4561.02	-228331
4561.52	-228331
4562.01	-228331
4562.5	-228331
4562.99	-228331
4563.48	-228331
4563.98	-228331
4564.47	-228331
4564.96	-228331
4565.45	-228331
4565.95	-228331
4566.44	-228331
4566.93	-228331
4567.42	-228331
4567.91	-228331
4568.41	-228331
4568.9	-228331
4569.39	-228331
4569.88	-223087
4570.37	-146948
4570.87	-107673
4571.36	-104541
4571.85	-104541
4572.34	-104541
4572.83	-104541
4573.33	-104541
4573.82	-104541
4574.31	-104541
4574.8	-104541
4575.3	-104541
4575.79	-104541
4576.28	-104541
4576.77	-104541
4577.26	-104541
4577.76	-104541
4578.25	-104541
4578.74	-104541
4579.23	-104541
4579.72	-104541
4580.22	-104541
4580.71	-104541
4581.2	-104541
4581.69	-104541
4582.19	-104541
4582.68	-104541
4583.17	-102016
4583.66	-59436.7
4584.15	49019.4
4584.65	74884
4585.14	74884
4585.63	74884
4586.12	74884
4586.61	74884
4587.11	74884
4587.6	74884
4588.09	74884
4588.58	74884
4589.07	74884
4589.57	74884
4590.06	74884
4590.55	74884
4591.04	74884
4591.54	74884
4592.03	74884
4592.52	74884
4593.01	74884
4593.5	74884
4594	74884
4594.49	74884
4594.98	74884
4595.47	74884
4595.96	74884
4596.46	74884
4596.95	74884
4597.44	76533.4
4597.93	100156
4598.43	108088
4598.92	108752
4599.41	108752
4599.9	108752
4600.39	108752
4600.89	108752
4601.38	108752
4601.87	108752
4602.36	108752
4602.85	108752
4603.35	108752
4603.84	108752
4604.33	108752
4604.82	108752
4605.32	108752
4605.81	108752
4606.3	108752
4606.79	108752
4607.28	108752
4607.78	108752
4608.27	108752
4608.76	108752
4609.25	108752
4609.74	108752
4610.24	108752
4610.73	108414
4611.22	101260
4611.71	62977.4
4612.21	15514.9
4612.7	15514.9
4613.19	15514.9
4613.68	15514.9
4614.17	15514.9
4614.67	15514.9
4615.16	15514.9
4615.65	15514.9
4616.14	15514.9
4616.63	15514.9
4617.13	15514.9
4617.62	15514.9
4618.11	15514.9
4618.6	15514.9
4619.09	15514.9
4619.59	15514.9
4620.08	15514.9
4620.57	15514.9
4621.06	15514.9
4621.56	15514.9
4622.05	15514.9
4622.54	15514.9
4623.03	15514.9
4623.52	15514.9
4624.02	15514.9
4624.51	15514.9
4625	15508
4625.49	14924
4625.98	8136.8
4626.48	7533.02
4626.97	7533.02
4627.46	7533.02
4627.95	7533.02
4628.44	7533.02
4628.94	7533.02
4629.43	7533.02
4629.92	7533.02
4630.41	7533.02
4630.91	7533.02
4631.4	7533.02
4631.89	7533.02
4632.38	7533.02
4632.87	7533.02
4633.37	7533.02
4633.86	7533.02
4634.35	7533.02
4634.84	7533.02
4635.33	7533.02
4635.83	7533.02
4636.32	7533.02
4636.81	7533.02
4637.3	7533.02
4637.8	7533.02
4638.29	7533.02
4638.78	10620.2
4639.27	57868.4
4639.76	115603
4640.26	128151
4640.75	128151
4641.24	128151
4641.73	128151
4642.22	128151
4642.72	128151
4643.21	128151
4643.7	128151
4644.19	128151
4644.69	128151
4645.18	128151
4645.67	128151
4646.16	128151
4646.65	128151
4647.15	128151
4647.64	128151
4648.13	128151
4648.62	128151
4649.11	128151
4649.61	128151
4650.1	128151
4650.59	128151
4651.08	128151
4651.58	128151
4652.07	128151
4652.56	128151
4653.05	128204
4653.54	131428
4654.04	167371
4654.53	185671
4655.02	185671
4655.51	185671
4656	185671
4656.5	185671
4656.99	185671
4657.48	185671
4657.97	185671
4658.46	185671
4658.96	185671
4659.45	185671
4659.94	185671
4660.43	185671
4660.93	185671
4661.42	185671
4661.91	185671
4662.4	185671
4662.89	185671
4663.39	185671
4663.88	185671
4664.37	185671
4664.86	185671
4665.35	185671
4665.85	185671
4666.34	185671
4666.83	185671
4667.32	184337
4667.81	162993
4668.31	120610
4668.8	99096
4669.29	99096
4669.78	99096
4670.28	99096
4670.77	99096
4671.26	99096
4671.75	99096
4672.24	99096
4672.74	99096
4673.23	99096
4673.72	99096
4674.21	99096
4674.71	99096
4675.2	99096
4675.69	99096
4676.18	99096
4676.67	99096
4677.17	99096
4677.66	99096
4678.15	99096
4678.64	99096
4679.13	99096
4679.63	99096
4680.12	99096
4680.61	99096
4681.1	99096
4681.59	98708.6
4682.09	90056.4
4682.58	42906.5
4683.07	21267.8
4683.56	21267.8
4684.06	21267.8
4684.55	21267.8
4685.04	21267.8
4685.53	21267.8
4686.02	21267.8
4686.52	21267.8
4687.01	21267.8
4687.5	21267.8
4687.99	21267.8
4688.48	21267.8
4688.98	21267.8
4689.47	21267.8
4689.96	21267.8
4690.45	21267.8
4690.95	21267.8
4691.44	21267.8
4691.93	21267.8
4692.42	21267.8
4692.91	21267.8
4693.41	21267.8
4693.9	21267.8
4694.39	21267.8
4694.88	21267.8
4695.37	21460.9
4695.87	24598.4
4696.36	30867.2
4696.85	33324.6
4697.34	33324.6
4697.83	33324.6
4698.33	33324.6
4698.82	33324.6
4699.31	33324.6
4699.8	33324.6
4700.3	33324.6
4700.79	33324.6
4701.28	33324.6
4701.77	33324.6
4702.26	33324.6
4702.76	33324.6
4703.25	33324.6
4703.74	33324.6
4704.23	33324.6
4704.72	33324.6
4705.22	33324.6
4705.71	33324.6
4706.2	33324.6
4706.69	33324.6
4707.19	33324.6
4707.68	33324.6
4708.17	33324.6
4708.66	33324.6
4709.15	33324.6
4709.65	33021.8
4710.14	27582.2
4710.63	10386.3
4711.12	5420.66
4711.61	5420.66
4712.11	5420.66
4712.6	5420.66
4713.09	5420.66
4713.58	5420.66
4714.08	5420.66
4714.57	5420.66
4715.06	5420.66
4715.55	5420.66
4716.04	5420.66
4716.54	5420.66
4717.03	5420.66
4717.52	5420.66
4718.01	5420.66
4718.5	5420.66
4719	5420.66
4719.49	5420.66
4719.98	5420.66
4720.47	5420.66
4720.96	5420.66
4721.46	5420.66
4721.95	5420.66
4722.44	5420.66
4722.93	5420.66
4723.43	1463.02
4723.92	-57125.4
4724.41	-112446
4724.9	-124461
4725.39	-124461
4725.89	-124461
4726.38	-124461
4726.87	-124461
4727.36	-124461
4727.85	-124461
4728.35	-124461
4728.84	-124461
4729.33	-124461
4729.82	-124461
4730.31	-124461
4730.81	-124461
4731.3	-124461
4731.79	-124461
4732.28	-124461
4732.78	-124461
4733.27	-124461
4733.76	-124461
4734.25	-124461
4734.74	-124461
4735.24	-124461
4735.73	-124461
4736.22	-124461
4736.71	-126234
4737.21	-154437
4737.7	-202309
4738.19	-205260
4738.68	-205260
4739.17	-205260
4739.67	-205260
4740.16	-205260
4740.65	-205260
4741.14	-205260
4741.63	-205260
4742.13	-205260
4742.62	-205260
4743.11	-205260
4743.6	-205260
4744.09	-205260
4744.59	-205260
4745.08	-205260
4745.57	-205260
4746.06	-205260
4746.56	-205260
4747.05	-205260
4747.54	-205260
4748.03	-205260
4748.52	-205260
4749.02	-205260
4749.51	-205260
4750	-203166
4750.49	-171606
4750.98	-139804
4751.48	-137160
4751.97	-137160
4752.46	-137160
4752.95	-137160
4753.45	-137160
4753.94	-137160
4754.43	-137160
4754.92	-137160
4755.41	-137160
4755.91	-137160
4756.4	-137160
4756.89	-137160
4757.38	-137160
4757.87	-137160
4758.37	-137160
4758.86	-137160
4759.35	-137160
4759.84	-137160
4760.33	-137160
4760.83	-137160
4761.32	-137160
4761.81	-137160
4762.3	-137160
4762.8	-136968
4763.29	-130988
4763.78	-82036.8
4764.27	-38958.6
4764.76	-38958.6
4765.26	-38958.6
4765.75	-38958.6
4766.24	-38958.6
4766.73	-38958.6
4767.22	-38958.6
4767.72	-38958.6
4768.21	-38958.6
4768.7	-38958.6
4769.19	-38958.6
4769.69	-38958.6
4770.18	-38958.6
4770.67	-38958.6
4771.16	-38958.6
4771.65	-38958.6
4772.15	-38958.6
4772.64	-38958.6
4773.13	-38958.6
4773.62	-38958.6
4774.11	-38958.6
4774.61	-38958.6
4775.1	-38958.6
4775.59	-38958.6
4776.08	-38887.2
4776.57	-37105.6
4777.07	-25917.3
4777.56	-22496.2
4778.05	-22496.2
4778.54	-22496.2
4779.04	-22496.2
4779.53	-22496.2
4780.02	-22496.2
4780.51	-22496.2
4781	-22496.2
4781.5	-22496.2
4781.99	-22496.2
4782.48	-22496.2
4782.97	-22496.2
4783.46	-22496.2
4783.96	-22496.2
4784.45	-22496.2
4784.94	-22496.2
4785.43	-22496.2
4785.93	-22496.2
4786.42	-22496.2
4786.91	-22496.2
4787.4	-22496.2
4787.89	-22496.2
4788.39	-22496.2
4788.88	-22496.2
4789.37	-22365
4789.86	-20328.6
4790.35	-17446.8
4790.85	-16439.6
4791.34	-16439.6
4791.83	-16439.6
4792.32	-16439.6
4792.82	-16439.6
4793.31	-16439.6
4793.8	-16439.6
4794.29	-16439.6
4794.78	-16439.6
4795.28	-16439.6
4795.77	-16439.6
4796.26	-16439.6
4796.75	-16439.6
4797.24	-16439.6
4797.74	-16439.6
4798.23	-16439.6
4798.72	-16439.6
4799.21	-16439.6
4799.71	-16439.6
4800.2	-16439.6
4800.69	-16439.6
4801.18	-16439.6
4801.67	-16439.6
4802.17	-15942.7
4802.66	-6867.31
4803.15	26086.7
4803.64	59368.6
4804.13	59368.6
4804.63	59368.6
4805.12	59368.6
4805.61	59368.6
4806.1	59368.6
4806.59	59368.6
4807.09	59368.6
4807.58	59368.6
4808.07	59368.6
4808.56	59368.6
4809.06	59368.6
4809.55	59368.6
4810.04	59368.6
4810.53	59368.6
4811.02	59368.6
4811.52	59368.6
4812.01	59368.6
4812.5	59368.6
4812.99	59368.6
4813.48	59368.6
4813.98	59368.6
4814.47	59368.6
4814.96	59368.6
4815.45	60226.9
4815.94	75500.8
4816.44	121887
4816.93	131295
4817.42	131295
4817.91	131295
4818.41	131295
4818.9	131295
4819.39	131295
4819.88	131295
4820.37	131295
4820.87	131295
4821.36	131295
4821.85	131295
4822.34	131295
4822.83	131295
4823.33	131295
4823.82	131295
4824.31	131295
4824.8	131295
4825.3	131295
4825.79	131295
4826.28	131295
4826.77	131295
4827.26	131295
4827.76	131295
4828.25	131295
4828.74	130692
4829.23	121352
4829.72	108612
4830.22	108006
4830.71	108006
4831.2	108006
4831.69	108006
4832.19	108006
4832.68	108006
4833.17	108006
4833.66	108006
4834.15	108006
4834.65	108006
4835.14	108006
4835.63	108006
4836.12	108006
4836.61	108006
4837.11	108006
4837.6	108006
4838.09	108006
4838.58	108006
4839.08	108006
4839.57	108006
4840.06	108006
4840.55	108006
4841.04	108006
4841.54	108006
4842.03	104424
4842.52	53808.4
4843.01	37501.5
4843.5	37079.1
4844	37079.1
4844.49	37079.1
4844.98	37079.1
4845.47	37079.1
4845.96	37079.1
4846.46	37079.1
4846.95	37079.1
4847.44	37079.1
4847.93	37079.1
4848.43	37079.1
4848.92	37079.1
4849.41	37079.1
4849.9	37079.1
4850.39	37079.1
4850.89	37079.1
4851.38	37079.1
4851.87	37079.1
4852.36	37079.1
4852.85	37079.1
4853.35	37079.1
4853.84	37079.1
4854.33	36804.6
4854.82	32358.2
4855.31	22822.3
4855.81	17962
4856.3	17962
4856.79	17962
4857.28	17962
4857.78	17962
4858.27	17962
4858.76	17962
4859.25	17962
4859.74	17962
4860.24	17962
4860.73	17962
4861.22	17962
4861.71	17962
4862.2	17962
4862.7	17962
4863.19	17962
4863.68	17962
4864.17	17962
4864.67	17962
4865.16	17962
4865.65	17962
4866.14	17962
4866.63	17962
4867.13	18276.4
4867.62	24275.2
4868.11	47231
4868.6	54958.7
4869.09	54958.7
4869.59	54958.7
4870.08	54958.7
4870.57	54958.7
4871.06	54958.7
4871.56	54958.7
4872.05	54958.7
4872.54	54958.7
4873.03	54958.7
4873.52	54958.7
4874.02	54958.7
4874.51	54958.7
4875	54958.7
4875.49	54958.7
4875.98	54958.7
4876.48	54958.7
4876.97	54958.7
4877.46	54958.7
4877.95	54958.7
4878.45	54958.7
4878.94	54958.7
4879.43	54958.7
4879.92	54958.7
4880.41	55801.3
4880.91	68149.8
4881.4	76154.6
4881.89	77591.6
4882.38	77591.6
4882.87	77591.6
4883.37	77591.6
4883.86	77591.6
4884.35	77591.6
4884.84	77591.6
4885.33	77591.6
4885.83	77591.6
4886.32	77591.6
4886.81	77591.6
4887.3	77591.6
4887.8	77591.6
4888.29	77591.6
4888.78	77591.6
4889.27	77591.6
4889.76	77591.6
4890.26	77591.6
4890.75	77591.6
4891.24	77591.6
4891.73	77591.6
4892.22	77591.6
4892.72	77591.6
4893.21	77050.4
4893.7	68396.6
4894.19	51796.9
4894.69	47822.9
4895.18	47822.9
4895.67	47822.9
4896.16	47822.9
4896.65	47822.9
4897.15	47822.9
4897.64	47822.9
4898.13	47822.9
4898.62	47822.9
4899.11	47822.9
4899.61	47822.9
4900.1	47822.9
4900.59	47822.9
4901.08	47822.9
4901.57	47822.9
4902.07	47822.9
4902.56	47822.9
4903.05	47822.9
4903.54	47822.9
4904.04	47822.9
4904.53	47822.9
4905.02	47822.9
4905.51	47822.9
4906	47822.9
4906.5	45038.2
4906.99	5249.21
4907.48	-6525.06
4907.97	-7378.43
4908.46	-7378.43
4908.96	-7378.43
4909.45	-7378.43
4909.94	-7378.43
4910.43	-7378.43
4910.93	-7378.43
4911.42	-7378.43
4911.91	-7378.43
4912.4	-7378.43
4912.89	-7378.43
4913.39	-7378.43
4913.88	-7378.43
4914.37	-7378.43
4914.86	-7378.43
4915.35	-7378.43
4915.85	-7378.43
4916.34	-7378.43
4916.83	-7378.43
4917.32	-7378.43
4917.82	-7378.43
4918.31	-7378.43
4918.8	-7378.43
4919.29	-7798.8
4919.78	-14811.6
4920.28	-31396.3
4920.77	-41806.2
4921.26	-41806.2
4921.75	-41806.2
4922.24	-41806.2
4922.74	-41806.2
4923.23	-41806.2
4923.72	-41806.2
4924.21	-41806.2
4924.71	-41806.2
4925.2	-41806.2
4925.69	-41806.2
4926.18	-41806.2
4926.67	-41806.2
4927.17	-41806.2
4927.66	-41806.2
4928.15	-41806.2
4928.64	-41806.2
4929.13	-41806.2
4929.63	-41806.2
4930.12	-41806.2
4930.61	-41806.2
4931.1	-41806.2
4931.59	-41806.2
4932.09	-41804.5
4932.58	-41750.2
4933.07	-41186.4
4933.56	-39096.7
4934.06	-39096.7
4934.55	-39096.7
4935.04	-39096.7
4935.53	-39096.7
4936.02	-39096.7
4936.52	-39096.7
4937.01	-39096.7
4937.5	-39096.7
4937.99	-39096.7
4938.48	-39096.7
4938.98	-39096.7
4939.47	-39096.7
4939.96	-39096.7
4940.45	-39096.7
4940.94	-39096.7
4941.44	-39096.7
4941.93	-39096.7
4942.42	-39096.7
4942.91	-39096.7
4943.41	-39096.7
4943.9	-39096.7
4944.39	-39096.7
4944.88	-39096.7
4945.37	-39096.7
4945.87	-38694.3
4946.36	-32587.8
4946.85	-25752.6
4947.34	-23656.8
4947.83	-23656.8
4948.33	-23656.8
4948.82	-23656.8
4949.31	-23656.8
4949.8	-23656.8
4950.3	-23656.8
4950.79	-23656.8
4951.28	-23656.8
4951.77	-23656.8
4952.26	-23656.8
4952.76	-23656.8
4953.25	-23656.8
4953.74	-23656.8
4954.23	-23656.8
4954.72	-23656.8
4955.22	-23656.8
4955.71	-23656.8
4956.2	-23656.8
4956.69	-23656.8
4957.19	-23656.8
4957.68	-23656.8
4958.17	-23656.8
4958.66	-23656.8
4959.15	-23704.1
4959.65	-24627.6
4960.14	-28632.8
4960.63	-33821.7
4961.12	-33821.7
4961.61	-33821.7
4962.11	-33821.7
4962.6	-33821.7
4963.09	-33821.7
4963.58	-33821.7
4964.08	-33821.7
4964.57	-33821.7
4965.06	-33821.7
4965.55	-33821.7
4966.04	-33821.7
4966.54	-33821.7
4967.03	-33821.7
4967.52	-33821.7
4968.01	-33821.7
4968.5	-33821.7
4969	-33821.7
4969.49	-33821.7
4969.98	-33821.7
4970.47	-33821.7
4970.96	-33821.7
4971.46	-33821.7
4971.95	-33821.7
4972.44	-33821.7
4972.93	-33821.7
4973.43	-35931.9
4973.92	-66637.3
4974.41	-83437.1
4974.9	-85989
4975.39	-85989
4975.89	-85989
4976.38	-85989
4976.87	-85989
4977.36	-85989
4977.85	-85989
4978.35	-85989
4978.84	-85989
4979.33	-85989
4979.82	-85989
4980.31	-85989
4980.81	-85989
4981.3	-85989
4981.79	-85989
4982.28	-85989
4982.78	-85989
4983.27	-85989
4983.76	-85989
4984.25	-85989
4984.74	-85989
4985.24	-85989
4985.73	-85989
4986.22	-85989
4986.71	-87123.8
4987.21	-105387
4987.7	-142174
4988.19	-155555
4988.68	-155555
4989.17	-155555
4989.67	-155555
4990.16	-155555
4990.65	-155555
4991.14	-155555
4991.63	-155555
4992.13	-155555
4992.62	-155555
4993.11	-155555
4993.6	-155555
4994.09	-155555
4994.59	-155555
4995.08	-155555
4995.57	-155555
4996.06	-155555
4996.56	-155555
4997.05	-155555
4997.54	-155555
4998.03	-155555
4998.52	-155555
4999.02	-155555
4999.51	-155555
5000	-155555
5000.49	-156318
5000.98	-168074
5001.48	-183324
5001.97	-184872
5002.46	-184872
5002.95	-184872
5003.45	-184872
5003.94	-184872
5004.43	-184872
5004.92	-184872
5005.41	-184872
5005.91	-184872
5006.4	-184872
5006.89	-184872
5007.38	-184872
5007.87	-184872
5008.37	-184872
5008.86	-184872
5009.35	-184872
5009.84	-184872
5010.33	-184872
5010.83	-184872
5011.32	-184872
5011.81	-184872
5012.3	-184872
5012.8	-184872
5013.29	-184872
5013.78	-184872
5014.27	-183688
5014.76	-165607
5015.26	-140918
5015.75	-133977
5016.24	-133977
5016.73	-133977
5017.22	-133977
5017.72	-133977
5018.21	-133977
5018.7	-133977
5019.19	-133977
5019.69	-133977
5020.18	-133977
5020.67	-133977
5021.16	-133977
5021.65	-133977
5022.15	-133977
5022.64	-133977
5023.13	-133977
5023.62	-133977
5024.11	-133977
5024.61	-133977
5025.1	-133977
5025.59	-133977
5026.08	-133977
5026.58	-133977
5027.07	-133977
5027.56	-133801
5028.05	-126766
5028.54	-61647.4
5029.04	-44079.1
5029.53	-44079.1
5030.02	-44079.1
5030.51	-44079.1
5031	-44079.1
5031.5	-44079.1
5031.99	-44079.1
5032.48	-44079.1
5032.97	-44079.1
5033.46	-44079.1
5033.96	-44079.1
5034.45	-44079.1
5034.94	-44079.1
5035.43	-44079.1
5035.93	-44079.1
5036.42	-44079.1
5036.91	-44079.1
5037.4	-44079.1
5037.89	-44079.1
5038.39	-44079.1
5038.88	-44079.1
5039.37	-44079.1
5039.86	-44079.1
5040.35	-44079.1
5040.85	-44079.1
5041.34	-44079.1
5041.83	-42731.2
5042.32	-23152.1
5042.81	-9566.72
5043.31	-9129.94
5043.8	-9129.94
5044.29	-9129.94
5044.78	-9129.94
5045.28	-9129.94
5045.77	-9129.94
5046.26	-9129.94
5046.75	-9129.94
5047.24	-9129.94
5047.74	-9129.94
5048.23	-9129.94
5048.72	-9129.94
5049.21	-9129.94
5049.71	-9129.94
5050.2	-9129.94
5050.69	-9129.94
5051.18	-9129.94
5051.67	-9129.94
5052.17	-9129.94
5052.66	-9129.94
5053.15	-9129.94
5053.64	-9129.94
5054.13	-9129.94
5054.63	-9129.94
5055.12	-9314.89
5055.61	-13121.6
5056.1	-31349.9
5056.59	-50095
5057.09	-50095
5057.58	-50095
5058.07	-50095
5058.56	-50095
5059.06	-50095
5059.55	-50095
5060.04	-50095
5060.53	-50095
5061.02	-50095
5061.52	-50095
5062.01	-50095
5062.5	-50095
5062.99	-50095
5063.48	-50095
5063.98	-50095
5064.47	-50095
5064.96	-50095
5065.45	-50095
5065.95	-50095
5066.44	-50095
5066.93	-50095
5067.42	-50095
5067.91	-50095
5068.41	-50095
5068.9	-50750
5069.39	-60426.1
5069.88	-69435.9
5070.37	-71657.7
5070.87	-71657.7
5071.36	-71657.7
5071.85	-71657.7
5072.34	-71657.7
5072.83	-71657.7
5073.33	-71657.7
5073.82	-71657.7
5074.31	-71657.7
5074.8	-71657.7
5075.3	-71657.7
5075.79	-71657.7
5076.28	-71657.7
5076.77	-71657.7
5077.26	-71657.7
5077.76	-71657.7
5078.25	-71657.7
5078.74	-71657.7
5079.23	-71657.7
5079.72	-71657.7
5080.22	-71657.7
5080.71	-71657.7
5081.2	-71657.7
5081.69	-71657.7
5082.19	-70046.9
5082.68	-43493.8
5083.17	12620.7
5083.66	17052
5084.15	17052
5084.65	17052
5085.14	17052
5085.63	17052
5086.12	17052
5086.61	17052
5087.11	17052
5087.6	17052
5088.09	17052
5088.58	17052
5089.07	17052
5089.57	17052
5090.06	17052
5090.55	17052
5091.04	17052
5091.54	17052
5092.03	17052
5092.52	17052
5093.01	17052
5093.5	17052
5094	17052
5094.49	17052
5094.98	17052
5095.47	20037.9
5095.96	69321.9
5096.46	181765
5096.95	198616
5097.44	198616
5097.93	198616
5098.43	198616
5098.92	198616
5099.41	198616
5099.9	198616
5100.39	198616
5100.89	198616
5101.38	198616
5101.87	198616
5102.36	198616
5102.85	198616
5103.35	198616
5103.84	198616
5104.33	198616
5104.82	198616
5105.32	198616
5105.81	198616
5106.3	198616
5106.79	198616
5107.28	198616
5107.78	198616
5108.27	198616
5108.76	202647
5109.25	265467
5109.74	357414
5110.24	383906
5110.73	383906
5111.22	383906
5111.71	383906
5112.21	383906
5112.7	383906
5113.19	383906
5113.68	383906
5114.17	383906
5114.67	383906
5115.16	383906
5115.65	383906
5116.14	383906
5116.63	383906
5117.13	383906
5117.62	383906
5118.11	383906
5118.6	383906
5119.09	383906
5119.59	383906
5120.08	383906
5120.57	383906
5121.06	383906
5121.56	383906
5122.05	383906
5122.54	383906
5123.03	389491
5123.52	467252
5124.02	476307
5124.51	476477
5125	476477
5125.49	476477
5125.98	476477
5126.48	476477
5126.97	476477
5127.46	476477
5127.95	476477
5128.44	476477
5128.94	476477
5129.43	476477
5129.92	476477
5130.41	476477
5130.91	476477
5131.4	476477
5131.89	476477
5132.38	476477
5132.87	476477
5133.37	476477
5133.86	476477
5134.35	476477
5134.84	476477
5135.33	476477
5135.83	476477
5136.32	475024
5136.81	452674
5137.3	423653
5137.8	413277
5138.29	413277
5138.78	413277
5139.27	413277
5139.76	413277
5140.26	413277
5140.75	413277
5141.24	413277
5141.73	413277
5142.22	413277
5142.72	413277
5143.21	413277
5143.7	413277
5144.19	413277
5144.69	413277
5145.18	413277
5145.67	413277
5146.16	413277
5146.65	413277
5147.15	413277
5147.64	413277
5148.13	413277
5148.62	413277
5149.11	413277
5149.61	412710
5150.1	400381
5150.59	332052
5151.08	244761
5151.58	244761
5152.07	244761
5152.56	244761
5153.05	244761
5153.54	244761
5154.04	244761
5154.53	244761
5155.02	244761
5155.51	244761
5156	244761
5156.5	244761
5156.99	244761
5157.48	244761
5157.97	244761
5158.46	244761
5158.96	244761
5159.45	244761
5159.94	244761
5160.43	244761
5160.93	244761
5161.42	244761
5161.91	244761
5162.4	244761
5162.89	244022
5163.39	228628
5163.88	155967
5164.37	127659
5164.86	127659
5165.35	127659
5165.85	127659
5166.34	127659
5166.83	127659
5167.32	127659
5167.81	127659
5168.31	127659
5168.8	127659
5169.29	127659
5169.78	127659
5170.28	127659
5170.77	127659
5171.26	127659
5171.75	127659
5172.24	127659
5172.74	127659
5173.23	127659
5173.72	127659
5174.21	127659
5174.71	127659
5175.2	127659
5175.69	127659
5176.18	127568
5176.67	125901
5177.17	119689
5177.66	112741
5178.15	112741
5178.64	112741
5179.13	112741
5179.63	112741
5180.12	112741
5180.61	112741
5181.1	112741
5181.59	112741
5182.09	112741
5182.58	112741
5183.07	112741
5183.56	112741
5184.06	112741
5184.55	112741
5185.04	112741
5185.53	112741
5186.02	112741
5186.52	112741
5187.01	112741
5187.5	112741
5187.99	112741
5188.48	112741
5188.98	112741
5189.47	112235
5189.96	101612
5190.45	50228.9
5190.95	41697.1
5191.44	41697.1
5191.93	41697.1
5192.42	41697.1
5192.91	41697.1
5193.41	41697.1
5193.9	41697.1
5194.39	41697.1
5194.88	41697.1
5195.37	41697.1
5195.87	41697.1
5196.36	41697.1
5196.85	41697.1
5197.34	41697.1
5197.83	41697.1
5198.33	41697.1
5198.82	41697.1
5199.31	41697.1
5199.8	41697.1
5200.3	41697.1
5200.79	41697.1
5201.28	41697.1
5201.77	41697.1
5202.26	41697.1
5202.76	41697.1
5203.25	39011.4
5203.74	-5480.14
5204.23	-113232
5204.72	-188435
5205.22	-188435
5205.71	-188435
5206.2	-188435
5206.69	-188435
5207.19	-188435
5207.68	-188435
5208.17	-188435
5208.66	-188435
5209.15	-188435
5209.65	-188435
5210.14	-188435
5210.63	-188435
5211.12	-188435
5211.61	-188435
5212.11	-188435
5212.6	-188435
5213.09	-188435
5213.58	-188435
5214.08	-188435
5214.57	-188435
5215.06	-188435
5215.55	-188435
5216.04	-188435
5216.54	-188435
5217.03	-191977
5217.52	-254399
5218.01	-434617
5218.5	-439407
5219	-439407
5219.49	-439407
5219.98	-439407
5220.47	-439407
5220.96	-439407
5221.46	-439407
5221.95	-439407
5222.44	-439407
5222.93	-439407
5223.43	-439407
5223.92	-439407
5224.41	-439407
5224.9	-439407
5225.39	-439407
5225.89	-439407
5226.38	-439407
5226.87	-439407
5227.36	-439407
5227.85	-439407
5228.35	-439407
5228.84	-439407
5229.33	-439407
5229.82	-439407
5230.32	-439407
5230.81	-444969
5231.3	-527984
5231.79	-615175
5232.28	-634038
5232.78	-634038
5233.27	-634038
5233.76	-634038
5234.25	-634038
5234.74	-634038
5235.24	-634038
5235.73	-634038
5236.22	-634038
5236.71	-634038
5237.21	-634038
5237.7	-634038
5238.19	-634038
5238.68	-634038
5239.17	-634038
5239.67	-634038
5240.16	-634038
5240.65	-634038
5241.14	-634038
5241.63	-634038
5242.13	-634038
5242.62	-634038
5243.11	-634038
5243.6	-634038
5244.09	-634135
5244.59	-638333
5245.08	-698316
5245.57	-977275
5246.06	-977275
5246.56	-977275
5247.05	-977275
5247.54	-977275
5248.03	-977275
5248.52	-977275
5249.02	-977275
5249.51	-977275
5250	-977275
5250.49	-977275
5250.98	-977275
5251.48	-977275
5251.97	-977275
5252.46	-977275
5252.95	-977275
5253.45	-977275
5253.94	-977275
5254.43	-977275
5254.92	-977275
5255.41	-977275
5255.91	-977275
5256.4	-977275
5256.89	-977275
5257.38	-977275
5257.87	-977275
5258.37	-987230
5258.86	-1.14234e+006
5259.35	-1.39627e+006
5259.84	-1.49346e+006
5260.33	-1.49346e+006
5260.83	-1.49346e+006
5261.32	-1.49346e+006
5261.81	-1.49346e+006
5262.3	-1.49346e+006
5262.8	-1.49346e+006
5263.29	-1.49346e+006
5263.78	-1.49346e+006
5264.27	-1.49346e+006
5264.76	-1.49346e+006
5265.26	-1.49346e+006
5265.75	-1.49346e+006
5266.24	-1.49346e+006
5266.73	-1.49346e+006
5267.22	-1.49346e+006
5267.72	-1.49346e+006
5268.21	-1.49346e+006
5268.7	-1.49346e+006
5269.19	-1.49346e+006
5269.69	-1.49346e+006
5270.18	-1.49346e+006
5270.67	-1.49346e+006
5271.16	-1.49346e+006
5271.65	-1.49346e+006
5272.15	-1.49446e+006
5272.64	-1.51217e+006
5273.13	-1.56704e+006
5273.62	-1.5801e+006
5274.11	-1.5801e+006
5274.61	-1.5801e+006
5275.1	-1.5801e+006
5275.59	-1.5801e+006
5276.08	-1.5801e+006
5276.58	-1.5801e+006
5277.07	-1.5801e+006
5277.56	-1.5801e+006
5278.05	-1.5801e+006
5278.54	-1.5801e+006
5279.04	-1.5801e+006
5279.53	-1.5801e+006
5280.02	-1.5801e+006
5280.51	-1.5801e+006
5281	-1.5801e+006
5281.5	-1.5801e+006
5281.99	-1.5801e+006
5282.48	-1.5801e+006
5282.97	-1.5801e+006
5283.46	-1.5801e+006
5283.96	-1.5801e+006
5284.45	-1.5801e+006
5284.94	-1.5801e+006
5285.43	-1.5801e+006
5285.93	-1.5801e+006
5286.42	-1.56959e+006
5286.91	-1.37887e+006
5287.4	-759311
5287.89	-572474
5288.39	-572474
5288.88	-572474
5289.37	-572474
5289.86	-572474
5290.35	-572474
5290.85	-572474
5291.34	-572474
5291.83	-572474
5292.32	-572474
5292.82	-572474
5293.31	-572474
5293.8	-572474
5294.29	-572474
5294.78	-572474
5295.28	-572474
5295.77	-572474
5296.26	-572474
5296.75	-572474
5297.24	-572474
5297.74	-572474
5298.23	-572474
5298.72	-572474
5299.21	-572474
5299.71	-572474
5300.2	-572474
5300.69	-572474
5301.18	-572474
5301.67	-572474
5302.17	-572474
5302.66	-552877
5303.15	-211388
5303.64	811650
5304.13	1.24714e+006
5304.63	1.24714e+006
5305.12	1.24714e+006
5305.61	1.24714e+006
5306.1	1.24714e+006
5306.59	1.24714e+006
5307.09	1.24714e+006
5307.58	1.24714e+006
5308.07	1.24714e+006
5308.56	1.24714e+006
5309.06	1.24714e+006
5309.55	1.24714e+006
5310.04	1.24714e+006
5310.53	1.24714e+006
5311.02	1.24714e+006
5311.52	1.24714e+006
5312.01	1.24714e+006
5312.5	1.24714e+006
5312.99	1.24714e+006
5313.48	1.24714e+006
5313.98	1.24714e+006
5314.47	1.24714e+006
5314.96	1.24714e+006
5315.45	1.24714e+006
5315.95	1.24714e+006
5316.44	1.24714e+006
5316.93	1.24714e+006
5317.42	1.24714e+006
5317.91	1.24714e+006
5318.41	1.24714e+006
5318.9	1.24714e+006
5319.39	1.24714e+006
5319.88	1.24714e+006
5320.37	1.24714e+006
5320.87	1.24714e+006
5321.36	1.24714e+006
5321.85	1.24714e+006
5322.34	1.24714e+006
5322.83	1.24714e+006
5323.33	1.24714e+006
5323.82	1.24714e+006
5324.31	1.24714e+006
5324.8	1.24714e+006
5325.3	1.24714e+006
5325.79	1.25773e+006
5326.28	1.45214e+006
5326.77	2.13163e+006
5327.26	2.65554e+006
5327.76	2.65554e+006
5328.25	2.65554e+006
5328.74	2.65554e+006
5329.23	2.65554e+006
5329.72	2.65554e+006
5330.22	2.65554e+006
5330.71	2.65554e+006
5331.2	2.65554e+006
5331.69	2.65554e+006
5332.19	2.65554e+006
5332.68	2.65554e+006
5333.17	2.65554e+006
5333.66	2.65554e+006
5334.15	2.65554e+006
5334.65	2.65554e+006
5335.14	2.65554e+006
5335.63	2.65554e+006
5336.12	2.65554e+006
5336.61	2.65554e+006
5337.11	2.65554e+006
5337.6	2.65554e+006
5338.09	2.65554e+006
5338.58	2.65554e+006
5339.08	2.65554e+006
5339.57	2.65554e+006
5340.06	2.65554e+006
5340.55	2.65554e+006
5341.04	2.65554e+006
5341.54	2.65554e+006
5342.03	2.65554e+006
5342.52	2.65554e+006
5343.01	2.65554e+006
5343.5	2.65554e+006
5344	2.65554e+006
5344.49	2.65554e+006
5344.98	2.65554e+006
5345.47	2.65554e+006
5345.96	2.65554e+006
5346.46	2.65554e+006
5346.95	2.65554e+006
5347.44	2.65554e+006
5347.93	2.65554e+006
5348.43	2.65554e+006
5348.92	2.65554e+006
5349.41	2.65554e+006
5349.9	2.65554e+006
5350.39	2.65554e+006
5350.89	2.6552e+006
5351.38	2.65038e+006
5351.87	2.64789e+006
5352.36	2.64766e+006
5352.85	2.64766e+006
5353.35	2.64766e+006
5353.84	2.64766e+006
5354.33	2.64766e+006
5354.82	2.64766e+006
5355.31	2.64766e+006
5355.81	2.64766e+006
5356.3	2.64766e+006
5356.79	2.64766e+006
5357.28	2.64766e+006
5357.78	2.64766e+006
5358.27	2.64766e+006
5358.76	2.64766e+006
5359.25	2.64766e+006
5359.74	2.64766e+006
5360.24	2.64766e+006
5360.73	2.64766e+006
5361.22	2.64766e+006
5361.71	2.64766e+006
5362.21	2.64766e+006
5362.7	2.64766e+006
5363.19	2.64766e+006
5363.68	2.64766e+006
5364.17	2.64766e+006
5364.67	2.64766e+006
5365.16	2.64766e+006
5365.65	2.64766e+006
5366.14	2.64766e+006
5366.63	2.64766e+006
5367.13	2.64766e+006
5367.62	2.64766e+006
5368.11	2.64766e+006
5368.6	2.64766e+006
5369.09	2.64766e+006
5369.59	2.64766e+006
5370.08	2.64766e+006
5370.57	2.64766e+006
5371.06	2.64766e+006
5371.56	2.64766e+006
5372.05	2.64766e+006
5372.54	2.64766e+006
5373.03	2.64766e+006
5373.52	2.64766e+006
5374.02	2.64766e+006
5374.51	2.64766e+006
5375	2.64766e+006
5375.49	2.60785e+006
5375.98	2.01661e+006
5376.48	1.43906e+006
5376.97	1.38182e+006
5377.46	1.38182e+006
5377.95	1.38182e+006
5378.45	1.38182e+006
5378.94	1.38182e+006
5379.43	1.38182e+006
5379.92	1.38182e+006
5380.41	1.38182e+006
5380.91	1.38182e+006
5381.4	1.38182e+006
5381.89	1.38182e+006
5382.38	1.38182e+006
5382.87	1.38182e+006
5383.37	1.38182e+006
5383.86	1.38182e+006
5384.35	1.38182e+006
5384.84	1.38182e+006
5385.33	1.38182e+006
5385.83	1.38182e+006
5386.32	1.38182e+006
5386.81	1.38182e+006
5387.3	1.38182e+006
5387.8	1.38182e+006
5388.29	1.38182e+006
5388.78	1.38182e+006
5389.27	1.38182e+006
5389.76	1.38182e+006
5390.26	1.38182e+006
5390.75	1.38182e+006
5391.24	1.38182e+006
5391.73	1.38182e+006
5392.22	1.38182e+006
5392.72	1.38182e+006
5393.21	1.38182e+006
5393.7	1.38182e+006
5394.19	1.38182e+006
5394.69	1.38182e+006
5395.18	1.38182e+006
5395.67	1.38182e+006
5396.16	1.38182e+006
5396.65	1.38182e+006
5397.15	1.38182e+006
5397.64	1.38182e+006
5398.13	1.38182e+006
5398.62	1.38182e+006
5399.11	1.37285e+006
5399.61	1.19126e+006
5400.1	374800
5400.59	-82285.9
5401.08	-82285.9
5401.57	-82285.9
5402.07	-82285.9
5402.56	-82285.9
5403.05	-82285.9
5403.54	-82285.9
5404.04	-82285.9
5404.53	-82285.9
5405.02	-82285.9
5405.51	-82285.9
5406	-82285.9
5406.5	-82285.9
5406.99	-82285.9
5407.48	-82285.9
5407.97	-82285.9
5408.46	-82285.9
5408.96	-82285.9
5409.45	-82285.9
5409.94	-82285.9
5410.43	-82285.9
5410.93	-82285.9
5411.42	-82285.9
5411.91	-82285.9
5412.4	-82285.9
5412.89	-82285.9
5413.39	-82285.9
5413.88	-82285.9
5414.37	-82285.9
5414.86	-82285.9
5415.35	-82285.9
5415.85	-82285.9
5416.34	-82285.9
5416.83	-82285.9
5417.32	-82285.9
5417.82	-107965
5418.31	-485539
5418.8	-805505
5419.29	-836914
5419.78	-836914
5420.28	-836914
5420.77	-836914
5421.26	-836914
5421.75	-836914
5422.24	-836914
5422.74	-836914
5423.23	-836914
5423.72	-836914
5424.21	-836914
5424.71	-836914
5425.2	-836914
5425.69	-836914
5426.18	-836914
5426.67	-836914
5427.17	-836914
5427.66	-836914
5428.15	-836914
5428.64	-836914
5429.13	-836914
5429.63	-836914
5430.12	-836914
5430.61	-836914
5431.1	-836914
5431.59	-836914
5432.09	-836914
5432.58	-836914
5433.07	-836914
5433.56	-836914
5434.06	-836914
5434.55	-836914
5435.04	-836914
5435.53	-836914
5436.02	-837189
5436.52	-841937
5437.01	-854555
5437.5	-854997
5437.99	-854997
5438.48	-854997
5438.98	-854997
5439.47	-854997
5439.96	-854997
5440.45	-854997
5440.94	-854997
5441.44	-854997
5441.93	-854997
5442.42	-854997
5442.91	-854997
5443.41	-854997
5443.9	-854997
5444.39	-854997
5444.88	-854997
5445.37	-854997
5445.87	-854997
5446.36	-854997
5446.85	-854997
5447.34	-854997
5447.83	-854997
5448.33	-854997
5448.82	-854997
5449.31	-854997
5449.8	-854997
5450.3	-854997
5450.79	-854997
5451.28	-854997
5451.77	-854997
5452.26	-854997
5452.76	-854997
5453.25	-854721
5453.74	-847104
5454.23	-789693
5454.72	-720820
5455.22	-720820
5455.71	-720820
5456.2	-720820
5456.69	-720820
5457.19	-720820
5457.68	-720820
5458.17	-720820
5458.66	-720820
5459.15	-720820
5459.65	-720820
5460.14	-720820
5460.63	-720820
5461.12	-720820
5461.61	-720820
5462.11	-720820
5462.6	-720820
5463.09	-720820
5463.58	-720820
5464.08	-720820
5464.57	-720820
5465.06	-720820
5465.55	-720820
5466.04	-720820
5466.54	-720820
5467.03	-720820
5467.52	-720820
5468.01	-720820
5468.5	-720820
5469	-720820
5469.49	-720820
5469.98	-720820
5470.47	-721251
5470.96	-729799
5471.46	-765481
5471.95	-771005
5472.44	-771005
5472.93	-771005
5473.43	-771005
5473.92	-771005
5474.41	-771005
5474.9	-771005
5475.39	-771005
5475.89	-771005
5476.38	-771005
5476.87	-771005
5477.36	-771005
5477.85	-771005
5478.35	-771005
5478.84	-771005
5479.33	-771005
5479.82	-771005
5480.31	-771005
5480.81	-771005
5481.3	-771005
5481.79	-771005
5482.28	-771005
5482.78	-771005
5483.27	-771005
5483.76	-771005
5484.25	-771005
5484.74	-771005
5485.24	-771005
5485.73	-771005
5486.22	-771005
5486.71	-771005
5487.21	-771005
5487.7	-770999
5488.19	-770541
5488.68	-764441
5489.17	-752719
5489.67	-752719
5490.16	-752719
5490.65	-752719
5491.14	-752719
5491.63	-752719
5492.13	-752719
5492.62	-752719
5493.11	-752719
5493.6	-752719
5494.09	-752719
5494.59	-752719
5495.08	-752719
5495.57	-752719
5496.06	-752719
5496.56	-752719
5497.05	-752719
5497.54	-752719
5498.03	-752719
5498.52	-752719
5499.02	-752719
5499.51	-752719
5500	-752719
5500.49	-752719
5500.98	-752719
5501.48	-752719
5501.97	-752719
5502.46	-752719
5502.95	-752719
5503.45	-752719
5503.94	-752719
5504.43	-745620
5504.92	-634459
5505.41	-447418
5505.91	-401336
5506.4	-401336
5506.89	-401336
5507.38	-401336
5507.87	-401336
5508.37	-401336
5508.86	-401336
5509.35	-401336
5509.84	-401336
5510.33	-401336
5510.83	-401336
5511.32	-401336
5511.81	-401336
5512.3	-401336
5512.8	-401336
5513.29	-401336
5513.78	-401336
5514.27	-401336
5514.76	-401336
5515.26	-401336
5515.75	-401336
5516.24	-401336
5516.73	-401336
5517.22	-401336
5517.72	-401336
5518.21	-401336
5518.7	-401336
5519.19	-401336
5519.69	-401336
5520.18	-401336
5520.67	-401336
5521.16	-398242
5521.65	-342301
5522.15	-147470
5522.64	24987.7
5523.13	24987.7
5523.62	24987.7
5524.11	24987.7
5524.61	24987.7
5525.1	24987.7
5525.59	24987.7
5526.08	24987.7
5526.58	24987.7
5527.07	24987.7
5527.56	24987.7
5528.05	24987.7
5528.54	24987.7
5529.04	24987.7
5529.53	24987.7
5530.02	24987.7
5530.51	24987.7
5531	24987.7
5531.5	24987.7
5531.99	24987.7
5532.48	24987.7
5532.97	24987.7
5533.46	24987.7
5533.96	24987.7
5534.45	24987.7
5534.94	24987.7
5535.43	24987.7
5535.93	24987.7
5536.42	24987.7
5536.91	24987.7
5537.4	24987.7
5537.89	24987.7
5538.39	24987.7
5538.88	27881.2
5539.37	70645.7
5539.86	110746
5540.35	121119
5540.85	121119
5541.34	121119
5541.83	121119
5542.32	121119
5542.82	121119
5543.31	121119
5543.8	121119
5544.29	121119
5544.78	121119
5545.28	121119
5545.77	121119
5546.26	121119
5546.75	121119
5547.24	121119
5547.74	121119
5548.23	121119
5548.72	121119
5549.21	121119
5549.71	121119
5550.2	121119
5550.69	121119
5551.18	121119
5551.67	121119
5552.17	121119
5552.66	121119
5553.15	121119
5553.64	121119
5554.13	121119
5554.63	121119
5555.12	121119
5555.61	120303
5556.1	103500
5556.59	22634.9
5557.09	-38071.5
5557.58	-38071.5
5558.07	-38071.5
5558.56	-38071.5
5559.06	-38071.5
5559.55	-38071.5
5560.04	-38071.5
5560.53	-38071.5
5561.02	-38071.5
5561.52	-38071.5
5562.01	-38071.5
5562.5	-38071.5
5562.99	-38071.5
5563.48	-38071.5
5563.98	-38071.5
5564.47	-38071.5
5564.96	-38071.5
5565.45	-38071.5
5565.95	-38071.5
5566.44	-38071.5
5566.93	-38071.5
5567.42	-38071.5
5567.91	-38071.5
5568.41	-38071.5
5568.9	-38071.5
5569.39	-38071.5
5569.88	-38071.5
5570.37	-38071.5
5570.87	-38071.5
5571.36	-38071.5
5571.85	-38106.5
5572.34	-39828.7
5572.83	-57626.5
5573.33	-68176.5
5573.82	-68176.5
5574.31	-68176.5
5574.8	-68176.5
5575.3	-68176.5
5575.79	-68176.5
5576.28	116584
5576.77	2.89673e+006
