dTect V4.6
Well Log
Fri 04 Oct 2013, 15:50:53
!
Name: P_Impedance_rel
Unit of Measure: Kg/m2s
Header info: No
Storage type: Ascii
!
98.9173	-3257.41
99.4095	-3257.41
99.9016	-3257.41
100.394	-3257.41
100.886	-3257.41
101.378	-3257.41
101.87	-3038.22
102.362	-2880.47
102.854	-2849.81
103.346	-2849.81
103.839	-2849.81
104.331	-2849.81
104.823	-2849.81
105.315	-2849.81
105.807	-2849.81
106.299	-2849.81
106.791	-2849.81
107.283	-2849.81
107.776	-2849.81
108.268	-2849.81
108.76	-2849.81
109.252	-2849.81
109.744	-2849.81
110.236	-2849.81
110.728	-2849.81
111.22	-2849.81
111.713	-2849.81
112.205	-2849.81
112.697	-2849.81
113.189	-2849.81
113.681	-2849.81
114.173	-2849.8
114.665	-2392.97
115.157	-1439.69
115.65	-1332.47
116.142	-1332.47
116.634	-1332.47
117.126	-1332.47
117.618	-1332.47
118.11	-1332.47
118.602	-1332.47
119.094	-1332.47
119.587	-1332.47
120.079	-1332.47
120.571	-1332.47
121.063	-1332.47
121.555	-1332.47
122.047	-1332.47
122.539	-1332.47
123.031	-1332.47
123.524	-1332.47
124.016	-1332.47
124.508	-1332.47
125	-1332.47
125.492	-1332.47
125.984	-1332.47
126.476	-1332.47
126.969	-1332.47
127.461	-1250.85
127.953	-2.8917
128.445	105.153
128.937	105.153
129.429	105.153
129.921	105.153
130.413	105.153
130.906	105.153
131.398	105.153
131.89	105.153
132.382	105.153
132.874	105.153
133.366	105.153
133.858	105.153
134.35	105.153
134.843	105.153
135.335	105.153
135.827	105.153
136.319	105.153
136.811	105.153
137.303	105.153
137.795	105.153
138.287	105.153
138.78	105.153
139.272	105.153
139.764	105.155
140.256	189.515
140.748	577.325
141.24	882.353
141.732	882.353
142.224	882.353
142.717	882.353
143.209	882.353
143.701	882.353
144.193	882.353
144.685	882.353
145.177	882.353
145.669	882.353
146.161	882.353
146.654	882.353
147.146	882.353
147.638	882.353
148.13	882.353
148.622	882.353
149.114	882.353
149.606	882.353
150.098	882.353
150.591	882.353
151.083	882.353
151.575	882.353
152.067	882.353
152.559	882.353
153.051	901.748
153.543	1100.64
154.035	1430.24
154.528	1430.24
155.02	1430.24
155.512	1430.24
156.004	1430.24
156.496	1430.24
156.988	1430.24
157.48	1430.24
157.972	1430.24
158.465	1430.24
158.957	1430.24
159.449	1430.24
159.941	1430.24
160.433	1430.24
160.925	1430.24
161.417	1430.24
161.909	1430.24
162.402	1430.24
162.894	1430.24
163.386	1430.24
163.878	1430.24
164.37	1430.24
164.862	1430.24
165.354	1430.24
165.846	1430.24
166.339	1590.15
166.831	1849.45
167.323	1940.61
167.815	1940.61
168.307	1940.61
168.799	1940.61
169.291	1940.61
169.783	1940.61
170.276	1940.61
170.768	1940.61
171.26	1940.61
171.752	1940.61
172.244	1940.61
172.736	1940.61
173.228	1940.61
173.72	1940.61
174.213	1940.61
174.705	1940.61
175.197	1940.61
175.689	1940.61
176.181	1940.61
176.673	1940.61
177.165	1940.61
177.657	1940.61
178.15	1940.61
178.642	1940.61
179.134	1960.06
179.626	2026.82
180.118	2069.64
180.61	2069.64
181.102	2069.64
181.594	2069.64
182.087	2069.64
182.579	2069.64
183.071	2069.64
183.563	2069.64
184.055	2069.64
184.547	2069.64
185.039	2069.64
185.532	2069.64
186.024	2069.64
186.516	2069.64
187.008	2069.64
187.5	2069.64
187.992	2069.64
188.484	2069.64
188.976	2069.64
189.469	2069.64
189.961	2069.64
190.453	2069.64
190.945	2069.64
191.437	2069.64
191.929	2069.64
192.421	1961.63
192.913	1882.76
193.406	1871.2
193.898	1871.2
194.39	1871.2
194.882	1871.2
195.374	1871.2
195.866	1871.2
196.358	1871.2
196.85	1871.2
197.343	1871.2
197.835	1871.2
198.327	1871.2
198.819	1871.2
199.311	1871.2
199.803	1871.2
200.295	1871.2
200.787	1871.2
201.28	1871.2
201.772	1871.2
202.264	1871.2
202.756	1871.2
203.248	1871.2
203.74	1871.2
204.232	1871.2
204.724	1871.2
205.217	1817.35
205.709	1726.71
206.201	1696.68
206.693	1696.68
207.185	1696.68
207.677	1696.68
208.169	1696.68
208.661	1696.68
209.154	1696.68
209.646	1696.68
210.138	1696.68
210.63	1696.68
211.122	1696.68
211.614	1696.68
212.106	1696.68
212.598	1696.68
213.091	1696.68
213.583	1696.68
214.075	1696.68
214.567	1696.68
215.059	1696.68
215.551	1696.68
216.043	1696.68
216.535	1696.68
217.028	1696.68
217.52	1696.68
218.012	1691.4
218.504	1476.43
218.996	1403.89
219.488	1403.89
219.98	1403.89
220.472	1403.89
220.965	1403.89
221.457	1403.89
221.949	1403.89
222.441	1403.89
222.933	1403.89
223.425	1403.89
223.917	1403.89
224.409	1403.89
224.902	1403.89
225.394	1403.89
225.886	1403.89
226.378	1403.89
226.87	1403.89
227.362	1403.89
227.854	1403.89
228.346	1403.89
228.839	1403.89
229.331	1403.89
229.823	1403.89
230.315	1403.89
230.807	1403.87
231.299	1106.91
231.791	835.101
232.283	779.724
232.776	779.724
233.268	779.724
233.76	779.724
234.252	779.724
234.744	779.724
235.236	779.724
235.728	779.724
236.22	779.724
236.713	779.724
237.205	779.724
237.697	779.724
238.189	779.724
238.681	779.724
239.173	779.724
239.665	779.724
240.158	779.724
240.65	779.724
241.142	779.724
241.634	779.724
242.126	779.724
242.618	779.724
243.11	779.724
243.602	779.724
244.094	685.148
244.587	265.223
245.079	162.561
245.571	162.561
246.063	162.561
246.555	162.561
247.047	162.561
247.539	162.561
248.032	162.561
248.524	162.561
249.016	162.561
249.508	162.561
250	162.561
250.492	162.561
250.984	162.561
251.476	162.561
251.969	162.561
252.461	162.561
252.953	162.561
253.445	162.561
253.937	162.561
254.429	162.561
254.921	162.561
255.413	162.561
255.906	162.561
256.398	162.561
256.89	162.561
257.382	-80.4086
257.874	-211.147
258.366	-230.284
258.858	-230.284
259.35	-230.284
259.843	-230.284
260.335	-230.284
260.827	-230.284
261.319	-230.284
261.811	-230.284
262.303	-230.284
262.795	-230.284
263.287	-230.284
263.78	-230.284
264.272	-230.284
264.764	-230.284
265.256	-230.284
265.748	-230.284
266.24	-230.284
266.732	-230.284
267.224	-230.284
267.717	-230.284
268.209	-230.284
268.701	-230.284
269.193	-230.284
269.685	-230.291
270.177	-366.453
270.669	-645.374
271.161	-715.753
271.654	-715.753
272.146	-715.753
272.638	-715.753
273.13	-715.753
273.622	-715.753
274.114	-715.753
274.606	-715.753
275.098	-715.753
275.591	-715.753
276.083	-715.753
276.575	-715.753
277.067	-715.753
277.559	-715.753
278.051	-715.753
278.543	-715.753
279.035	-715.753
279.528	-715.753
280.02	-715.753
280.512	-715.753
281.004	-715.753
281.496	-715.753
281.988	-715.753
282.48	-715.753
282.972	-715.753
283.465	-1139.59
283.957	-1307.9
284.449	-1319
284.941	-1319
285.433	-1319
285.925	-1319
286.417	-1319
286.909	-1319
287.402	-1319
287.894	-1319
288.386	-1319
288.878	-1319
289.37	-1319
289.862	-1319
290.354	-1319
290.846	-1319
291.339	-1319
291.831	-1319
292.323	-1319
292.815	-1319
293.307	-1319
293.799	-1319
294.291	-1319
294.783	-1319
295.276	-1319
295.768	-1319
296.26	-1426.33
296.752	-1568.44
297.244	-1612.44
297.736	-1612.44
298.228	-1612.44
298.72	-1612.44
299.213	-1612.44
299.705	-1612.44
300.197	-1612.44
300.689	-1612.44
301.181	-1612.44
301.673	-1612.44
302.165	-1612.44
302.657	-1612.44
303.15	-1612.44
303.642	-1612.44
304.134	-1612.44
304.626	-1612.44
305.118	-1612.44
305.61	-1612.44
306.102	-1612.44
306.595	-1612.44
307.087	-1612.44
307.579	-1612.44
308.071	-1612.44
308.563	-1612.44
309.055	-1611.83
309.547	-1606.71
310.039	-1603.76
310.531	-1603.76
311.024	-1603.76
311.516	-1603.76
312.008	-1603.76
312.5	-1603.76
312.992	-1603.76
313.484	-1603.76
313.976	-1603.76
314.469	-1603.76
314.961	-1603.76
315.453	-1603.76
315.945	-1603.76
316.437	-1603.76
316.929	-1603.76
317.421	-1603.76
317.913	-1603.76
318.406	-1603.76
318.898	-1603.76
319.39	-1603.76
319.882	-1603.76
320.374	-1603.76
320.866	-1603.76
321.358	-1603.76
321.85	-1603.76
322.343	-1621.58
322.835	-1644.28
323.327	-1651.31
323.819	-1651.31
324.311	-1651.31
324.803	-1651.31
325.295	-1651.31
325.787	-1651.31
326.28	-1651.31
326.772	-1651.31
327.264	-1651.31
327.756	-1651.31
328.248	-1651.31
328.74	-1651.31
329.232	-1651.31
329.724	-1651.31
330.217	-1651.31
330.709	-1651.31
331.201	-1651.31
331.693	-1651.31
332.185	-1651.31
332.677	-1651.31
333.169	-1651.31
333.661	-1651.31
334.154	-1651.31
334.646	-1651.31
335.138	-1649.05
335.63	-1640.48
336.122	-1632.8
336.614	-1632.8
337.106	-1632.8
337.598	-1632.8
338.091	-1632.8
338.583	-1632.8
339.075	-1632.8
339.567	-1632.8
340.059	-1632.8
340.551	-1632.8
341.043	-1632.8
341.535	-1632.8
342.028	-1632.8
342.52	-1632.8
343.012	-1632.8
343.504	-1632.8
343.996	-1632.8
344.488	-1632.8
344.98	-1632.8
345.472	-1632.8
345.965	-1632.8
346.457	-1632.8
346.949	-1632.8
347.441	-1632.8
347.933	-1632.8
348.425	-1530.16
348.917	-1296.94
349.409	-1258.03
349.902	-1258.03
350.394	-1258.03
350.886	-1258.03
351.378	-1258.03
351.87	-1258.03
352.362	-1258.03
352.854	-1258.03
353.346	-1258.03
353.839	-1258.03
354.331	-1258.03
354.823	-1258.03
355.315	-1258.03
355.807	-1258.03
356.299	-1258.03
356.791	-1258.03
357.283	-1258.03
357.776	-1258.03
358.268	-1258.03
358.76	-1258.03
359.252	-1258.03
359.744	-1258.03
360.236	-1258.03
360.728	-1258.03
361.22	-1216.55
361.713	-984.432
362.205	-746.421
362.697	-746.421
363.189	-746.421
363.681	-746.421
364.173	-746.421
364.665	-746.421
365.158	-746.421
365.65	-746.421
366.142	-746.421
366.634	-746.421
367.126	-746.421
367.618	-746.421
368.11	-746.421
368.602	-746.421
369.095	-746.421
369.587	-746.421
370.079	-746.421
370.571	-746.421
371.063	-746.421
371.555	-746.421
372.047	-746.421
372.539	-746.421
373.032	-746.421
373.524	-746.421
374.016	-746.062
374.508	-729.002
375	-346.155
375.492	-346.155
375.984	-346.155
376.476	-346.155
376.969	-346.155
377.461	-346.155
377.953	-346.155
378.445	-346.155
378.937	-346.155
379.429	-346.155
379.921	-346.155
380.413	-346.155
380.906	-346.155
381.398	-346.155
381.89	-346.155
382.382	-346.155
382.874	-346.155
383.366	-346.155
383.858	-346.155
384.35	-346.155
384.843	-346.155
385.335	-346.155
385.827	-346.155
386.319	-346.155
386.811	-346.155
387.303	-346.155
387.795	-110.772
388.287	84.1016
388.78	111.149
389.272	111.149
389.764	111.149
390.256	111.149
390.748	111.149
391.24	111.149
391.732	111.149
392.224	111.149
392.717	111.149
393.209	111.149
393.701	111.149
394.193	111.149
394.685	111.149
395.177	111.149
395.669	111.149
396.161	111.149
396.654	111.149
397.146	111.149
397.638	111.149
398.13	111.149
398.622	111.149
399.114	111.149
399.606	111.149
400.098	111.152
400.591	178.573
401.083	507.692
401.575	657.386
402.067	657.386
402.559	657.386
403.051	657.386
403.543	657.386
404.035	657.386
404.528	657.386
405.02	657.386
405.512	657.386
406.004	657.386
406.496	657.386
406.988	657.386
407.48	657.386
407.972	657.386
408.465	657.386
408.957	657.386
409.449	657.386
409.941	657.386
410.433	657.386
410.925	657.386
411.417	657.386
411.909	657.386
412.402	657.386
412.894	657.386
413.386	657.393
413.878	796.1
414.37	993.514
414.862	1044.8
415.354	1044.8
415.846	1044.8
416.339	1044.8
416.831	1044.8
417.323	1044.8
417.815	1044.8
418.307	1044.8
418.799	1044.8
419.291	1044.8
419.783	1044.8
420.276	1044.8
420.768	1044.8
421.26	1044.8
421.752	1044.8
422.244	1044.8
422.736	1044.8
423.228	1044.8
423.721	1044.8
424.213	1044.8
424.705	1044.8
425.197	1044.8
425.689	1044.8
426.181	1044.8
426.673	1065.62
427.165	1165.27
427.658	1286.48
428.15	1286.48
428.642	1286.48
429.134	1286.48
429.626	1286.48
430.118	1286.48
430.61	1286.48
431.102	1286.48
431.595	1286.48
432.087	1286.48
432.579	1286.48
433.071	1286.48
433.563	1286.48
434.055	1286.48
434.547	1286.48
435.039	1286.48
435.531	1286.48
436.024	1286.48
436.516	1286.48
437.008	1286.48
437.5	1286.48
437.992	1286.48
438.484	1286.48
438.976	1286.48
439.469	1286.48
439.961	1287.65
440.453	1481.1
440.945	1497.9
441.437	1497.9
441.929	1497.9
442.421	1497.9
442.913	1497.9
443.406	1497.9
443.898	1497.9
444.39	1497.9
444.882	1497.9
445.374	1497.9
445.866	1497.9
446.358	1497.9
446.85	1497.9
447.343	1497.9
447.835	1497.9
448.327	1497.9
448.819	1497.9
449.311	1497.9
449.803	1497.9
450.295	1497.9
450.787	1497.9
451.28	1497.9
451.772	1497.9
452.264	1497.9
452.756	1497.9
453.248	1496.23
453.74	1494.04
454.232	1493.48
454.724	1493.48
455.217	1493.48
455.709	1493.48
456.201	1493.48
456.693	1493.48
457.185	1493.48
457.677	1493.48
458.169	1493.48
458.661	1493.48
459.154	1493.48
459.646	1493.48
460.138	1493.48
460.63	1493.48
461.122	1493.48
461.614	1493.48
462.106	1493.48
462.598	1493.48
463.091	1493.48
463.583	1493.48
464.075	1493.48
464.567	1493.48
465.059	1493.48
465.551	1493.48
466.043	1482.79
466.535	1362.4
467.028	1238.64
467.52	1238.64
468.012	1238.64
468.504	1238.64
468.996	1238.64
469.488	1238.64
469.98	1238.64
470.472	1238.64
470.965	1238.64
471.457	1238.64
471.949	1238.64
472.441	1238.64
472.933	1238.64
473.425	1238.64
473.917	1238.64
474.409	1238.64
474.902	1238.64
475.394	1238.64
475.886	1238.64
476.378	1238.64
476.87	1238.64
477.362	1238.64
477.854	1238.64
478.346	1238.64
478.839	1238.64
479.331	1212.38
479.823	1087.36
480.315	1028.53
480.807	1028.53
481.299	1028.53
481.791	1028.53
482.283	1028.53
482.776	1028.53
483.268	1028.53
483.76	1028.53
484.252	1028.53
484.744	1028.53
485.236	1028.53
485.728	1028.53
486.221	1028.53
486.713	1028.53
487.205	1028.53
487.697	1028.53
488.189	1028.53
488.681	1028.53
489.173	1028.53
489.665	1028.53
490.158	1028.53
490.65	1028.53
491.142	1028.53
491.634	1028.53
492.126	1028.53
492.618	981.734
493.11	827.6
493.602	806.612
494.095	806.612
494.587	806.612
495.079	806.612
495.571	806.612
496.063	806.612
496.555	806.612
497.047	806.612
497.539	806.612
498.032	806.612
498.524	806.612
499.016	806.612
499.508	806.612
500	806.612
500.492	806.612
500.984	806.612
501.476	806.612
501.969	806.612
502.461	806.612
502.953	806.612
503.445	806.612
503.937	806.612
504.429	806.612
504.921	806.612
505.413	806.612
505.906	567.509
506.398	326.812
506.89	281.754
507.382	281.754
507.874	281.754
508.366	281.754
508.858	281.754
509.35	281.754
509.843	281.754
510.335	281.754
510.827	281.754
511.319	281.754
511.811	281.754
512.303	281.754
512.795	281.754
513.287	281.754
513.78	281.754
514.272	281.754
514.764	281.754
515.256	281.754
515.748	281.754
516.24	281.754
516.732	281.754
517.224	281.754
517.717	281.754
518.209	281.749
518.701	235.231
519.193	-0.4094
519.685	-261.14
520.177	-261.14
520.669	-261.14
521.161	-261.14
521.654	-261.14
522.146	-261.14
522.638	-261.14
523.13	-261.14
523.622	-261.14
524.114	-261.14
524.606	-261.14
525.098	-261.14
525.591	-261.14
526.083	-261.14
526.575	-261.14
527.067	-261.14
527.559	-261.14
528.051	-261.14
528.543	-261.14
529.035	-261.14
529.528	-261.14
530.02	-261.14
530.512	-261.14
531.004	-261.14
531.496	-261.14
531.988	-261.154
532.48	-398.755
532.972	-426.043
533.465	-427.039
533.957	-427.039
534.449	-427.039
534.941	-427.039
535.433	-427.039
535.925	-427.039
536.417	-427.039
536.909	-427.039
537.402	-427.039
537.894	-427.039
538.386	-427.039
538.878	-427.039
539.37	-427.039
539.862	-427.039
540.354	-427.039
540.846	-427.039
541.339	-427.039
541.831	-427.039
542.323	-427.039
542.815	-427.039
543.307	-427.039
543.799	-427.039
544.291	-427.039
544.784	-427.039
545.276	-462.391
545.768	-528.53
546.26	-560.697
546.752	-560.697
547.244	-560.697
547.736	-560.697
548.228	-560.697
548.72	-560.697
549.213	-560.697
549.705	-560.697
550.197	-560.697
550.689	-560.697
551.181	-560.697
551.673	-560.697
552.165	-560.697
552.658	-560.697
553.15	-560.697
553.642	-560.697
554.134	-560.697
554.626	-560.697
555.118	-560.697
555.61	-560.697
556.102	-560.697
556.595	-560.697
557.087	-560.697
557.579	-560.697
558.071	-565.11
558.563	-638.31
559.055	-958.383
559.547	-958.383
560.039	-958.383
560.531	-958.383
561.024	-958.383
561.516	-958.383
562.008	-958.383
562.5	-958.383
562.992	-958.383
563.484	-958.383
563.976	-958.383
564.469	-958.383
564.961	-958.383
565.453	-958.383
565.945	-958.383
566.437	-958.383
566.929	-958.383
567.421	-958.383
567.913	-958.383
568.406	-958.383
568.898	-958.383
569.39	-958.383
569.882	-958.383
570.374	-958.383
570.866	-958.383
571.358	-958.39
571.85	-1030.26
572.343	-1094.85
572.835	-1110.36
573.327	-1110.36
573.819	-1110.36
574.311	-1110.36
574.803	-1110.36
575.295	-1110.36
575.787	-1110.36
576.28	-1110.36
576.772	-1110.36
577.264	-1110.36
577.756	-1110.36
578.248	-1110.36
578.74	-1110.36
579.232	-1110.36
579.724	-1110.36
580.217	-1110.36
580.709	-1110.36
581.201	-1110.36
581.693	-1110.36
582.185	-1110.36
582.677	-1110.36
583.169	-1110.36
583.661	-1110.36
584.154	-1110.36
584.646	-1086.92
585.138	-958.662
585.63	-772.089
586.122	-772.089
586.614	-772.089
587.106	-772.089
587.598	-772.089
588.091	-772.089
588.583	-772.089
589.075	-772.089
589.567	-772.089
590.059	-772.089
590.551	-772.089
591.043	-772.089
591.535	-772.089
592.028	-772.089
592.52	-772.089
593.012	-772.089
593.504	-772.089
593.996	-772.089
594.488	-772.089
594.98	-772.089
595.472	-772.089
595.965	-772.089
596.457	-772.089
596.949	-772.089
597.441	-772.089
597.933	-772.089
598.425	-613.691
598.917	-546.428
599.409	-538.84
599.902	-538.84
600.394	-538.84
600.886	-538.84
601.378	-538.84
601.87	-538.84
602.362	-538.84
602.854	-538.84
603.346	-538.84
603.839	-538.84
604.331	-538.84
604.823	-538.84
605.315	-538.84
605.807	-538.84
606.299	-538.84
606.791	-538.84
607.284	-538.84
607.776	-538.84
608.268	-538.84
608.76	-538.84
609.252	-538.84
609.744	-538.84
610.236	-538.84
610.728	-538.841
611.22	-546.502
611.713	-571.629
612.205	-592.24
612.697	-592.24
613.189	-592.24
613.681	-592.24
614.173	-592.24
614.665	-592.24
615.157	-592.24
615.65	-592.24
616.142	-592.24
616.634	-592.24
617.126	-592.24
617.618	-592.24
618.11	-592.24
618.602	-592.24
619.095	-592.24
619.587	-592.24
620.079	-592.24
620.571	-592.24
621.063	-592.24
621.555	-592.24
622.047	-592.24
622.539	-592.24
623.032	-592.24
623.524	-592.24
624.016	-592.24
624.508	-589.358
625	-412.911
625.492	-377.985
625.984	-377.985
626.476	-377.985
626.969	-377.985
627.461	-377.985
627.953	-377.985
628.445	-377.985
628.937	-377.985
629.429	-377.985
629.921	-377.985
630.413	-377.985
630.906	-377.985
631.398	-377.985
631.89	-377.985
632.382	-377.985
632.874	-377.985
633.366	-377.985
633.858	-377.985
634.35	-377.985
634.843	-377.985
635.335	-377.985
635.827	-377.985
636.319	-377.985
636.811	-377.985
637.303	-377.975
637.795	-281.484
638.287	-31.574
638.78	100.638
639.272	100.638
639.764	100.638
640.256	100.638
640.748	100.638
641.24	100.638
641.732	100.638
642.224	100.638
642.717	100.638
643.209	100.638
643.701	100.638
644.193	100.638
644.685	100.638
645.177	100.638
645.669	100.638
646.161	100.638
646.654	100.638
647.146	100.638
647.638	100.638
648.13	100.638
648.622	100.638
649.114	100.638
649.606	100.638
650.098	100.638
650.591	100.638
651.083	122.811
651.575	237.003
652.067	262.029
652.559	262.029
653.051	262.029
653.543	262.029
654.035	262.029
654.528	262.029
655.02	262.029
655.512	262.029
656.004	262.029
656.496	262.029
656.988	262.029
657.48	262.029
657.972	262.029
658.465	262.029
658.957	262.029
659.449	262.029
659.941	262.029
660.433	262.029
660.925	262.029
661.417	262.029
661.909	262.029
662.402	262.029
662.894	262.029
663.386	262.029
663.878	262.029
664.37	238.785
664.862	172.786
665.354	151.867
665.846	151.867
666.339	151.867
666.831	151.867
667.323	151.867
667.815	151.867
668.307	151.867
668.799	151.867
669.291	151.867
669.784	151.867
670.276	151.867
670.768	151.867
671.26	151.867
671.752	151.867
672.244	151.867
672.736	151.867
673.228	151.867
673.721	151.867
674.213	151.867
674.705	151.867
675.197	151.867
675.689	151.867
676.181	151.867
676.673	151.867
677.165	151.868
677.657	162.758
678.15	189.803
678.642	198.74
679.134	198.74
679.626	198.74
680.118	198.74
680.61	198.74
681.102	198.74
681.595	198.74
682.087	198.74
682.579	198.74
683.071	198.74
683.563	198.74
684.055	198.74
684.547	198.74
685.039	198.74
685.532	198.74
686.024	198.74
686.516	198.74
687.008	198.74
687.5	198.74
687.992	198.74
688.484	198.74
688.976	198.74
689.469	198.74
689.961	198.74
690.453	198.741
690.945	207.282
691.437	254.381
691.929	260.206
692.421	260.206
692.913	260.206
693.406	260.206
693.898	260.206
694.39	260.206
694.882	260.206
695.374	260.206
695.866	260.206
696.358	260.206
696.85	260.206
697.343	260.206
697.835	260.206
698.327	260.206
698.819	260.206
699.311	260.206
699.803	260.206
700.295	260.206
700.787	260.206
701.28	260.206
701.772	260.206
702.264	260.206
702.756	260.206
703.248	260.206
703.74	260.201
704.232	210.987
704.724	119.127
705.217	75.1886
705.709	75.1886
706.201	75.1886
706.693	75.1886
707.185	75.1886
707.677	75.1886
708.169	75.1886
708.661	75.1886
709.154	75.1886
709.646	75.1886
710.138	75.1886
710.63	75.1886
711.122	75.1886
711.614	75.1886
712.106	75.1886
712.598	75.1886
713.091	75.1886
713.583	75.1886
714.075	75.1886
714.567	75.1886
715.059	75.1886
715.551	75.1886
716.043	75.1886
716.535	75.1886
717.028	75.1886
717.52	66.3643
718.012	-144.703
718.504	-154.752
718.996	-154.752
719.488	-154.752
719.98	-154.752
720.472	-154.752
720.965	-154.752
721.457	-154.752
721.949	-154.752
722.441	-154.752
722.933	-154.752
723.425	-154.752
723.917	-154.752
724.409	-154.752
724.902	-154.752
725.394	-154.752
725.886	-154.752
726.378	-154.752
726.87	-154.752
727.362	-154.752
727.854	-154.752
728.346	-154.752
728.839	-154.752
729.331	-154.752
729.823	-154.752
730.315	-154.752
730.807	-186.7
731.299	-269.353
731.791	-310.228
732.284	-310.228
732.776	-310.228
733.268	-310.228
733.76	-310.228
734.252	-310.228
734.744	-310.228
735.236	-310.228
735.728	-310.228
736.221	-310.228
736.713	-310.228
737.205	-310.228
737.697	-310.228
738.189	-310.228
738.681	-310.228
739.173	-310.228
739.665	-310.228
740.158	-310.228
740.65	-310.228
741.142	-310.228
741.634	-310.228
742.126	-310.228
742.618	-310.228
743.11	-310.228
743.602	-310.23
744.094	-332.781
744.587	-437.151
745.079	-481.586
745.571	-481.586
746.063	-481.586
746.555	-481.586
747.047	-481.586
747.539	-481.586
748.032	-481.586
748.524	-481.586
749.016	-481.586
749.508	-481.586
750	-481.586
750.492	-481.586
750.984	-481.586
751.476	-481.586
751.969	-481.586
752.461	-481.586
752.953	-481.586
753.445	-481.586
753.937	-481.586
754.429	-481.586
754.921	-481.586
755.413	-481.586
755.906	-481.586
756.398	-481.586
756.89	-481.586
757.382	-481.851
757.874	-492.678
758.366	-496.072
758.858	-496.072
759.35	-496.072
759.843	-496.072
760.335	-496.072
760.827	-496.072
761.319	-496.072
761.811	-496.072
762.303	-496.072
762.795	-496.072
763.287	-496.072
763.78	-496.072
764.272	-496.072
764.764	-496.072
765.256	-496.072
765.748	-496.072
766.24	-496.072
766.732	-496.072
767.224	-496.072
767.717	-496.072
768.209	-496.072
768.701	-496.072
769.193	-496.072
769.685	-496.072
770.177	-496.07
770.669	-473.316
771.161	-388.578
771.654	-303.832
772.146	-303.832
772.638	-303.832
773.13	-303.832
773.622	-303.832
774.114	-303.832
774.606	-303.832
775.099	-303.832
775.591	-303.832
776.083	-303.832
776.575	-303.832
777.067	-303.832
777.559	-303.832
778.051	-303.832
778.543	-303.832
779.035	-303.832
779.528	-303.832
780.02	-303.832
780.512	-303.832
781.004	-303.832
781.496	-303.832
781.988	-303.832
782.48	-303.832
782.972	-303.832
783.465	-303.832
783.957	-303.828
784.449	-267.633
784.941	-244.665
785.433	-242.405
785.925	-242.405
786.417	-242.405
786.909	-242.405
787.402	-242.405
787.894	-242.405
788.386	-242.405
788.878	-242.405
789.37	-242.405
789.862	-242.405
790.354	-242.405
790.846	-242.405
791.339	-242.405
791.831	-242.405
792.323	-242.405
792.815	-242.405
793.307	-242.405
793.799	-242.405
794.291	-242.405
794.784	-242.405
795.276	-242.405
795.768	-242.405
796.26	-242.405
796.752	-242.405
797.244	-242.402
797.736	-215.487
798.228	-184.389
798.721	-182.137
799.213	-182.137
799.705	-182.137
800.197	-182.137
800.689	-182.137
801.181	-182.137
801.673	-182.137
802.165	-182.137
802.658	-182.137
803.15	-182.137
803.642	-182.137
804.134	-182.137
804.626	-182.137
805.118	-182.137
805.61	-182.137
806.102	-182.137
806.595	-182.137
807.087	-182.137
807.579	-182.137
808.071	-182.137
808.563	-182.137
809.055	-182.137
809.547	-182.137
810.039	-182.136
810.531	-175.247
811.024	-53.1565
811.516	367.457
812.008	367.457
812.5	367.457
812.992	367.457
813.484	367.457
813.976	367.457
814.469	367.457
814.961	367.457
815.453	367.457
815.945	367.457
816.437	367.457
816.929	367.457
817.421	367.457
817.913	367.457
818.406	367.457
818.898	367.457
819.39	367.457
819.882	367.457
820.374	367.457
820.866	367.457
821.358	367.457
821.85	367.457
822.343	367.457
822.835	367.457
823.327	367.457
823.819	367.457
824.311	548.448
824.803	875.121
825.295	1013.06
825.787	1013.06
826.28	1013.06
826.772	1013.06
827.264	1013.06
827.756	1013.06
828.248	1013.06
828.74	1013.06
829.232	1013.06
829.724	1013.06
830.217	1013.06
830.709	1013.06
831.201	1013.06
831.693	1013.06
832.185	1013.06
832.677	1013.06
833.169	1013.06
833.661	1013.06
834.154	1013.06
834.646	1013.06
835.138	1013.06
835.63	1013.06
836.122	1013.06
836.614	1013.06
837.106	1013.06
837.598	1020.63
838.091	1054.32
838.583	1069.35
839.075	1069.35
839.567	1069.35
840.059	1069.35
840.551	1069.35
841.043	1069.35
841.535	1069.35
842.028	1069.35
842.52	1069.35
843.012	1069.35
843.504	1069.35
843.996	1069.35
844.488	1069.35
844.98	1069.35
845.472	1069.35
845.965	1069.35
846.457	1069.35
846.949	1069.35
847.441	1069.35
847.933	1069.35
848.425	1069.35
848.917	1069.35
849.41	1069.35
849.902	1069.35
850.394	1069.35
850.886	1069.35
851.378	1063.69
851.87	1061.26
852.362	1061.02
852.854	1061.02
853.346	1061.02
853.839	1061.02
854.331	1061.02
854.823	1061.02
855.315	1061.02
855.807	1061.02
856.299	1061.02
856.791	1061.02
857.284	1061.02
857.776	1061.02
858.268	1061.02
858.76	1061.02
859.252	1061.02
859.744	1061.02
860.236	1061.02
860.728	1061.02
861.22	1061.02
861.713	1061.02
862.205	1061.02
862.697	1061.02
863.189	1061.02
863.681	1061.02
864.173	1075.73
864.665	1271.78
865.158	1605.57
865.65	1605.57
866.142	1605.57
866.634	1605.57
867.126	1605.57
867.618	1605.57
868.11	1605.57
868.602	1605.57
869.095	1605.57
869.587	1605.57
870.079	1605.57
870.571	1605.57
871.063	1605.57
871.555	1605.57
872.047	1605.57
872.539	1605.57
873.031	1605.57
873.524	1605.57
874.016	1605.57
874.508	1605.57
875	1605.57
875.492	1605.57
875.984	1605.57
876.476	1605.57
876.969	1605.57
877.461	1605.57
877.953	1663.26
878.445	1837.62
878.937	1855.61
879.429	1855.61
879.921	1855.61
880.413	1855.61
880.906	1855.61
881.398	1855.61
881.89	1855.61
882.382	1855.61
882.874	1855.61
883.366	1855.61
883.858	1855.61
884.35	1855.61
884.843	1855.61
885.335	1855.61
885.827	1855.61
886.319	1855.61
886.811	1855.61
887.303	1855.61
887.795	1855.61
888.287	1855.61
888.78	1855.61
889.272	1855.61
889.764	1855.61
890.256	1855.61
890.748	1855.61
891.24	1716.48
891.732	1374.19
892.224	1154.7
892.717	1154.7
893.209	1154.7
893.701	1154.7
894.193	1154.7
894.685	1154.7
895.177	1154.7
895.669	1154.7
896.161	1154.7
896.654	1154.7
897.146	1154.7
897.638	1154.7
898.13	1154.7
898.622	1154.7
899.114	1154.7
899.606	1154.7
900.098	1154.7
900.591	1154.7
901.083	1154.7
901.575	1154.7
902.067	1154.7
902.559	1154.7
903.051	1154.7
903.543	1154.7
904.036	1154.7
904.528	1134.46
905.02	782.22
905.512	492.105
906.004	492.105
906.496	492.105
906.988	492.105
907.48	492.105
907.972	492.105
908.465	492.105
908.957	492.105
909.449	492.105
909.941	492.105
910.433	492.105
910.925	492.105
911.417	492.105
911.909	492.105
912.402	492.105
912.894	492.105
913.386	492.105
913.878	492.105
914.37	492.105
914.862	492.105
915.354	492.105
915.847	492.105
916.339	492.105
916.831	492.105
917.323	492.105
917.815	492.105
918.307	466.776
918.799	438.967
919.291	430.876
919.784	430.876
920.276	430.876
920.768	430.876
921.26	430.876
921.752	430.876
922.244	430.876
922.736	430.876
923.228	430.876
923.721	430.876
924.213	430.876
924.705	430.876
925.197	430.876
925.689	430.876
926.181	430.876
926.673	430.876
927.165	430.876
927.657	430.876
928.15	430.876
928.642	430.876
929.134	430.876
929.626	430.876
930.118	430.876
930.61	430.876
931.102	430.861
931.595	359.103
932.087	36.7686
932.579	-58.8308
933.071	-58.8308
933.563	-58.8308
934.055	-58.8308
934.547	-58.8308
935.039	-58.8308
935.532	-58.8308
936.024	-58.8308
936.516	-58.8308
937.008	-58.8308
937.5	-58.8308
937.992	-58.8308
938.484	-58.8308
938.976	-58.8308
939.469	-58.8308
939.961	-58.8308
940.453	-58.8308
940.945	-58.8308
941.437	-58.8308
941.929	-58.8308
942.421	-58.8308
942.913	-58.8308
943.406	-58.8308
943.898	-58.8308
944.39	-58.8308
944.882	-58.8308
945.374	-845.423
945.866	-1235.42
946.358	-1284.08
946.85	-1284.08
947.343	-1284.08
947.835	-1284.08
948.327	-1284.08
948.819	-1284.08
949.311	-1284.08
949.803	-1284.08
950.295	-1284.08
950.787	-1284.08
951.28	-1284.08
951.772	-1284.08
952.264	-1284.08
952.756	-1284.08
953.248	-1284.08
953.74	-1284.08
954.232	-1284.08
954.724	-1284.08
955.217	-1284.08
955.709	-1284.08
956.201	-1284.08
956.693	-1284.08
957.185	-1284.08
957.677	-1284.08
958.169	-1284.13
958.661	-1520.81
959.154	-2028.31
959.646	-2078.77
960.138	-2078.77
960.63	-2078.77
961.122	-2078.77
961.614	-2078.77
962.106	-2078.77
962.599	-2078.77
963.091	-2078.77
963.583	-2078.77
964.075	-2078.77
964.567	-2078.77
965.059	-2078.77
965.551	-2078.77
966.043	-2078.77
966.535	-2078.77
967.028	-2078.77
967.52	-2078.77
968.012	-2078.77
968.504	-2078.77
968.996	-2078.77
969.488	-2078.77
969.98	-2078.77
970.473	-2078.77
970.965	-2078.77
971.457	-2078.77
971.949	-2078.77
972.441	-2129.32
972.933	-2137.68
973.425	-2138.02
973.917	-2138.02
974.409	-2138.02
974.902	-2138.02
975.394	-2138.02
975.886	-2138.02
976.378	-2138.02
976.87	-2138.02
977.362	-2138.02
977.854	-2138.02
978.346	-2138.02
978.839	-2138.02
979.331	-2138.02
979.823	-2138.02
980.315	-2138.02
980.807	-2138.02
981.299	-2138.02
981.791	-2138.02
982.284	-2138.02
982.776	-2138.02
983.268	-2138.02
983.76	-2138.02
984.252	-2138.02
984.744	-2138.02
985.236	-2138.04
985.728	-2228.84
986.221	-2335.69
986.713	-2338.12
987.205	-2338.12
987.697	-2338.12
988.189	-2338.12
988.681	-2338.12
989.173	-2338.12
989.665	-2338.12
990.158	-2338.12
990.65	-2338.12
991.142	-2338.12
991.634	-2338.12
992.126	-2338.12
992.618	-2338.12
993.11	-2338.12
993.602	-2338.12
994.094	-2338.12
994.587	-2338.12
995.079	-2338.12
995.571	-2338.12
996.063	-2338.12
996.555	-2338.12
997.047	-2338.12
997.539	-2338.12
998.032	-2338.12
998.524	-2338.12
999.016	-2349.68
999.508	-2699.93
1000	-2705.36
1000.49	-2705.36
1000.98	-2705.36
1001.48	-2705.36
1001.97	-2705.36
1002.46	-2705.36
1002.95	-2705.36
1003.44	-2705.36
1003.94	-2705.36
1004.43	-2705.36
1004.92	-2705.36
1005.41	-2705.36
1005.91	-2705.36
1006.4	-2705.36
1006.89	-2705.36
1007.38	-2705.36
1007.87	-2705.36
1008.37	-2705.36
1008.86	-2705.36
1009.35	-2705.36
1009.84	-2705.36
1010.33	-2705.36
1010.83	-2705.36
1011.32	-2705.36
1011.81	-2705.36
1012.3	-2705.34
1012.8	-2594.8
1013.29	-2518.16
1013.78	-2516.03
1014.27	-2516.03
1014.76	-2516.03
1015.26	-2516.03
1015.75	-2516.03
1016.24	-2516.03
1016.73	-2516.03
1017.22	-2516.03
1017.72	-2516.03
1018.21	-2516.03
1018.7	-2516.03
1019.19	-2516.03
1019.69	-2516.03
1020.18	-2516.03
1020.67	-2516.03
1021.16	-2516.03
1021.65	-2516.03
1022.15	-2516.03
1022.64	-2516.03
1023.13	-2516.03
1023.62	-2516.03
1024.11	-2516.03
1024.61	-2516.03
1025.1	-2516.03
1025.59	-2516.03
1026.08	-2397.49
1026.57	-1804.12
1027.07	-1767.74
1027.56	-1767.74
1028.05	-1767.74
1028.54	-1767.74
1029.04	-1767.74
1029.53	-1767.74
1030.02	-1767.74
1030.51	-1767.74
1031	-1767.74
1031.5	-1767.74
1031.99	-1767.74
1032.48	-1767.74
1032.97	-1767.74
1033.46	-1767.74
1033.96	-1767.74
1034.45	-1767.74
1034.94	-1767.74
1035.43	-1767.74
1035.93	-1767.74
1036.42	-1767.74
1036.91	-1767.74
1037.4	-1767.74
1037.89	-1767.74
1038.39	-1767.74
1038.88	-1767.74
1039.37	-1767.62
1039.86	-1159.09
1040.35	-869.61
1040.85	-841.892
1041.34	-841.892
1041.83	-841.892
1042.32	-841.892
1042.81	-841.892
1043.31	-841.892
1043.8	-841.892
1044.29	-841.892
1044.78	-841.892
1045.28	-841.892
1045.77	-841.892
1046.26	-841.892
1046.75	-841.892
1047.24	-841.892
1047.74	-841.892
1048.23	-841.892
1048.72	-841.892
1049.21	-841.892
1049.7	-841.892
1050.2	-841.892
1050.69	-841.892
1051.18	-841.892
1051.67	-841.892
1052.17	-841.892
1052.66	-841.892
1053.15	-598.457
1053.64	7.98184
1054.13	129.047
1054.63	129.047
1055.12	129.047
1055.61	129.047
1056.1	129.047
1056.59	129.047
1057.09	129.047
1057.58	129.047
1058.07	129.047
1058.56	129.047
1059.06	129.047
1059.55	129.047
1060.04	129.047
1060.53	129.047
1061.02	129.047
1061.52	129.047
1062.01	129.047
1062.5	129.047
1062.99	129.047
1063.48	129.047
1063.98	129.047
1064.47	129.047
1064.96	129.047
1065.45	129.047
1065.94	129.047
1066.44	129.152
1066.93	643.949
1067.42	899.363
1067.91	929.58
1068.41	929.58
1068.9	929.58
1069.39	929.58
1069.88	929.58
1070.37	929.58
1070.87	929.58
1071.36	929.58
1071.85	929.58
1072.34	929.58
1072.83	929.58
1073.33	929.58
1073.82	929.58
1074.31	929.58
1074.8	929.58
1075.3	929.58
1075.79	929.58
1076.28	929.58
1076.77	929.58
1077.26	929.58
1077.76	929.58
1078.25	929.58
1078.74	929.58
1079.23	929.58
1079.72	929.58
1080.22	1134.15
1080.71	1509.66
1081.2	1666.07
1081.69	1666.07
1082.19	1666.07
1082.68	1666.07
1083.17	1666.07
1083.66	1666.07
1084.15	1666.07
1084.65	1666.07
1085.14	1666.07
1085.63	1666.07
1086.12	1666.07
1086.61	1666.07
1087.11	1666.07
1087.6	1666.07
1088.09	1666.07
1088.58	1666.07
1089.07	1666.07
1089.57	1666.07
1090.06	1666.07
1090.55	1666.07
1091.04	1666.07
1091.54	1666.07
1092.03	1666.07
1092.52	1666.07
1093.01	1666.07
1093.5	1670.87
1094	2241.64
1094.49	2798.86
1094.98	2803.31
1095.47	2803.31
1095.96	2803.31
1096.46	2803.31
1096.95	2803.31
1097.44	2803.31
1097.93	2803.31
1098.43	2803.31
1098.92	2803.31
1099.41	2803.31
1099.9	2803.31
1100.39	2803.31
1100.89	2803.31
1101.38	2803.31
1101.87	2803.31
1102.36	2803.31
1102.85	2803.31
1103.35	2803.31
1103.84	2803.31
1104.33	2803.31
1104.82	2803.31
1105.32	2803.31
1105.81	2803.31
1106.3	2803.31
1106.79	2803.31
1107.28	2988.2
1107.78	3441.55
1108.27	3690.72
1108.76	3690.72
1109.25	3690.72
1109.74	3690.72
1110.24	3690.72
1110.73	3690.72
1111.22	3690.72
1111.71	3690.72
1112.2	3690.72
1112.7	3690.72
1113.19	3690.72
1113.68	3690.72
1114.17	3690.72
1114.67	3690.72
1115.16	3690.72
1115.65	3690.72
1116.14	3690.72
1116.63	3690.72
1117.13	3690.72
1117.62	3690.72
1118.11	3690.72
1118.6	3690.72
1119.09	3690.72
1119.59	3690.72
1120.08	3690.72
1120.57	3677.4
1121.06	3550.72
1121.56	3225.85
1122.05	3225.85
1122.54	3225.85
1123.03	3225.85
1123.52	3225.85
1124.02	3225.85
1124.51	3225.85
1125	3225.85
1125.49	3225.85
1125.98	3225.85
1126.48	3225.85
1126.97	3225.85
1127.46	3225.85
1127.95	3225.85
1128.44	3225.85
1128.94	3225.85
1129.43	3225.85
1129.92	3225.85
1130.41	3225.85
1130.91	3225.85
1131.4	3225.85
1131.89	3225.85
1132.38	3225.85
1132.87	3225.85
1133.37	3225.85
1133.86	3225.85
1134.35	3216.2
1134.84	2638.64
1135.33	2388.26
1135.83	2388.26
1136.32	2388.26
1136.81	2388.26
1137.3	2388.26
1137.8	2388.26
1138.29	2388.26
1138.78	2388.26
1139.27	2388.26
1139.76	2388.26
1140.26	2388.26
1140.75	2388.26
1141.24	2388.26
1141.73	2388.26
1142.22	2388.26
1142.72	2388.26
1143.21	2388.26
1143.7	2388.26
1144.19	2388.26
1144.69	2388.26
1145.18	2388.26
1145.67	2388.26
1146.16	2388.26
1146.65	2388.26
1147.15	2388.26
1147.64	2388.27
1148.13	2431.02
1148.62	2559.33
1149.11	2587.04
1149.61	2587.04
1150.1	2587.04
1150.59	2587.04
1151.08	2587.04
1151.57	2587.04
1152.07	2587.04
1152.56	2587.04
1153.05	2587.04
1153.54	2587.04
1154.04	2587.04
1154.53	2587.04
1155.02	2587.04
1155.51	2587.04
1156	2587.04
1156.5	2587.04
1156.99	2587.04
1157.48	2587.04
1157.97	2587.04
1158.46	2587.04
1158.96	2587.04
1159.45	2587.04
1159.94	2587.04
1160.43	2587.04
1160.93	2587.04
1161.42	2587.04
1161.91	2449.89
1162.4	2330.23
1162.89	2309.5
1163.39	2309.5
1163.88	2309.5
1164.37	2309.5
1164.86	2309.5
1165.35	2309.5
1165.85	2309.5
1166.34	2309.5
1166.83	2309.5
1167.32	2309.5
1167.82	2309.5
1168.31	2309.5
1168.8	2309.5
1169.29	2309.5
1169.78	2309.5
1170.28	2309.5
1170.77	2309.5
1171.26	2309.5
1171.75	2309.5
1172.24	2309.5
1172.74	2309.5
1173.23	2309.5
1173.72	2309.5
1174.21	2309.5
1174.7	2309.43
1175.2	1988.12
1175.69	943.669
1176.18	42.0118
1176.67	42.0118
1177.17	42.0118
1177.66	42.0118
1178.15	42.0118
1178.64	42.0118
1179.13	42.0118
1179.63	42.0118
1180.12	42.0118
1180.61	42.0118
1181.1	42.0118
1181.59	42.0118
1182.09	42.0118
1182.58	42.0118
1183.07	42.0118
1183.56	42.0118
1184.06	42.0118
1184.55	42.0118
1185.04	42.0118
1185.53	42.0118
1186.02	42.0118
1186.52	42.0118
1187.01	42.0118
1187.5	42.0118
1187.99	42.0118
1188.48	42.0118
1188.98	-137.58
1189.47	-1813.33
1189.96	-1897.17
1190.45	-1897.17
1190.94	-1897.17
1191.44	-1897.17
1191.93	-1897.17
1192.42	-1897.17
1192.91	-1897.17
1193.41	-1897.17
1193.9	-1897.17
1194.39	-1897.17
1194.88	-1897.17
1195.37	-1897.17
1195.87	-1897.17
1196.36	-1897.17
1196.85	-1897.17
1197.34	-1897.17
1197.83	-1897.17
1198.33	-1897.17
1198.82	-1897.17
1199.31	-1897.17
1199.8	-1897.17
1200.3	-1897.17
1200.79	-1897.17
1201.28	-1897.17
1201.77	-1897.17
1202.26	-1897.17
1202.76	-1805.32
1203.25	-1700.68
1203.74	-1681.14
1204.23	-1681.14
1204.72	-1681.14
1205.22	-1681.14
1205.71	-1681.14
1206.2	-1681.14
1206.69	-1681.14
1207.19	-1681.14
1207.68	-1681.14
1208.17	-1681.14
1208.66	-1681.14
1209.15	-1681.14
1209.65	-1681.14
1210.14	-1681.14
1210.63	-1681.14
1211.12	-1681.14
1211.61	-1681.14
1212.11	-1681.14
1212.6	-1681.14
1213.09	-1681.14
1213.58	-1681.14
1214.07	-1681.14
1214.57	-1681.14
1215.06	-1681.14
1215.55	-1681.14
1216.04	-1690.98
1216.54	-1800.03
1217.03	-1895.48
1217.52	-1895.48
1218.01	-1895.48
1218.5	-1895.48
1219	-1895.48
1219.49	-1895.48
1219.98	-1895.48
1220.47	-1895.48
1220.96	-1895.48
1221.46	-1895.48
1221.95	-1895.48
1222.44	-1895.48
1222.93	-1895.48
1223.43	-1895.48
1223.92	-1895.48
1224.41	-1895.48
1224.9	-1895.48
1225.39	-1895.48
1225.89	-1895.48
1226.38	-1895.48
1226.87	-1895.48
1227.36	-1895.48
1227.85	-1895.48
1228.35	-1895.48
1228.84	-1895.48
1229.33	-1895.48
1229.82	-2170.32
1230.31	-3366.65
1230.81	-3958.37
1231.3	-3958.37
1231.79	-3958.37
1232.28	-3958.37
1232.78	-3958.37
1233.27	-3958.37
1233.76	-3958.37
1234.25	-3958.37
1234.74	-3958.37
1235.24	-3958.37
1235.73	-3958.37
1236.22	-3958.37
1236.71	-3958.37
1237.2	-3958.37
1237.7	-3958.37
1238.19	-3958.37
1238.68	-3958.37
1239.17	-3958.37
1239.67	-3958.37
1240.16	-3958.37
1240.65	-3958.37
1241.14	-3958.37
1241.63	-3958.37
1242.13	-3958.37
1242.62	-3958.37
1243.11	-3958.4
1243.6	-4082.72
1244.09	-4572.98
1244.59	-4647.17
1245.08	-4647.17
1245.57	-4647.17
1246.06	-4647.17
1246.56	-4647.17
1247.05	-4647.17
1247.54	-4647.17
1248.03	-4647.17
1248.52	-4647.17
1249.02	-4647.17
1249.51	-4647.17
1250	-4647.17
1250.49	-4647.17
1250.98	-4647.17
1251.48	-4647.17
1251.97	-4647.17
1252.46	-4647.17
1252.95	-4647.17
1253.44	-4647.17
1253.94	-4647.17
1254.43	-4647.17
1254.92	-4647.17
1255.41	-4647.17
1255.91	-4647.17
1256.4	-4647.17
1256.89	-4647.17
1257.38	-3861.14
1257.87	-2897.11
1258.37	-2664.35
1258.86	-2664.35
1259.35	-2664.35
1259.84	-2664.35
1260.33	-2664.35
1260.83	-2664.35
1261.32	-2664.35
1261.81	-2664.35
1262.3	-2664.35
1262.8	-2664.35
1263.29	-2664.35
1263.78	-2664.35
1264.27	-2664.35
1264.76	-2664.35
1265.26	-2664.35
1265.75	-2664.35
1266.24	-2664.35
1266.73	-2664.35
1267.22	-2664.35
1267.72	-2664.35
1268.21	-2664.35
1268.7	-2664.35
1269.19	-2664.35
1269.69	-2664.35
1270.18	-2664.34
1270.67	-2600.76
1271.16	-2093.17
1271.65	-1301.65
1272.15	-1301.65
1272.64	-1301.65
1273.13	-1301.65
1273.62	-1301.65
1274.11	-1301.65
1274.61	-1301.65
1275.1	-1301.65
1275.59	-1301.65
1276.08	-1301.65
1276.57	-1301.65
1277.07	-1301.65
1277.56	-1301.65
1278.05	-1301.65
1278.54	-1301.65
1279.04	-1301.65
1279.53	-1301.65
1280.02	-1301.65
1280.51	-1301.65
1281	-1301.65
1281.5	-1301.65
1281.99	-1301.65
1282.48	-1301.65
1282.97	-1301.65
1283.46	-1301.65
1283.96	-1301.65
1284.45	-1301.68
1284.94	-1468.54
1285.43	-1545.37
1285.93	-1553.2
1286.42	-1553.2
1286.91	-1553.2
1287.4	-1553.2
1287.89	-1553.2
1288.39	-1553.2
1288.88	-1553.2
1289.37	-1553.2
1289.86	-1553.2
1290.35	-1553.2
1290.85	-1553.2
1291.34	-1553.2
1291.83	-1553.2
1292.32	-1553.2
1292.82	-1553.2
1293.31	-1553.2
1293.8	-1553.2
1294.29	-1553.2
1294.78	-1553.2
1295.28	-1553.2
1295.77	-1553.2
1296.26	-1553.2
1296.75	-1553.2
1297.24	-1553.2
1297.74	-1553.17
1298.23	-1403.04
1298.72	-929.847
1299.21	-560.49
1299.7	-560.49
1300.2	-560.49
1300.69	-560.49
1301.18	-560.49
1301.67	-560.49
1302.17	-560.49
1302.66	-560.49
1303.15	-560.49
1303.64	-560.49
1304.13	-560.49
1304.63	-560.49
1305.12	-560.49
1305.61	-560.49
1306.1	-560.49
1306.59	-560.49
1307.09	-560.49
1307.58	-560.49
1308.07	-560.49
1308.56	-560.49
1309.06	-560.49
1309.55	-560.49
1310.04	-560.49
1310.53	-560.49
1311.02	-560.49
1311.52	-560.482
1312.01	-522.264
1312.5	1789.11
1312.99	2074.88
1313.48	2074.88
1313.98	2074.88
1314.47	2074.88
1314.96	2074.88
1315.45	2074.88
1315.94	2074.88
1316.44	2074.88
1316.93	2074.88
1317.42	2074.88
1317.91	2074.88
1318.41	2074.88
1318.9	2074.88
1319.39	2074.88
1319.88	2074.88
1320.37	2074.88
1320.87	2074.88
1321.36	2074.88
1321.85	2074.88
1322.34	2074.88
1322.83	2074.88
1323.33	2074.88
1323.82	2074.88
1324.31	2074.88
1324.8	2074.88
1325.3	2074.88
1325.79	2537.52
1326.28	3445.53
1326.77	3885.36
1327.26	3885.36
1327.76	3885.36
1328.25	3885.36
1328.74	3885.36
1329.23	3885.36
1329.72	3885.36
1330.22	3885.36
1330.71	3885.36
1331.2	3885.36
1331.69	3885.36
1332.19	3885.36
1332.68	3885.36
1333.17	3885.36
1333.66	3885.36
1334.15	3885.36
1334.65	3885.36
1335.14	3885.36
1335.63	3885.36
1336.12	3885.36
1336.61	3885.36
1337.11	3885.36
1337.6	3885.36
1338.09	3885.36
1338.58	3885.36
1339.07	3885.37
1339.57	3925.48
1340.06	4181.05
1340.55	4190.8
1341.04	4190.8
1341.54	4190.8
1342.03	4190.8
1342.52	4190.8
1343.01	4190.8
1343.5	4190.8
1344	4190.8
1344.49	4190.8
1344.98	4190.8
1345.47	4190.8
1345.96	4190.8
1346.46	4190.8
1346.95	4190.8
1347.44	4190.8
1347.93	4190.8
1348.43	4190.8
1348.92	4190.8
1349.41	4190.8
1349.9	4190.8
1350.39	4190.8
1350.89	4190.8
1351.38	4190.8
1351.87	4190.8
1352.36	4190.8
1352.85	4190.8
1353.35	4062.35
1353.84	3866.97
1354.33	3802.85
1354.82	3802.85
1355.31	3802.85
1355.81	3802.85
1356.3	3802.85
1356.79	3802.85
1357.28	3802.85
1357.78	3802.85
1358.27	3802.85
1358.76	3802.85
1359.25	3802.85
1359.74	3802.85
1360.24	3802.85
1360.73	3802.85
1361.22	3802.85
1361.71	3802.85
1362.2	3802.85
1362.7	3802.85
1363.19	3802.85
1363.68	3802.85
1364.17	3802.85
1364.67	3802.85
1365.16	3802.85
1365.65	3802.85
1366.14	3802.85
1366.63	3802.83
1367.13	3713.14
1367.62	3448.82
1368.11	3436.79
1368.6	3436.79
1369.09	3436.79
1369.59	3436.79
1370.08	3436.79
1370.57	3436.79
1371.06	3436.79
1371.56	3436.79
1372.05	3436.79
1372.54	3436.79
1373.03	3436.79
1373.52	3436.79
1374.02	3436.79
1374.51	3436.79
1375	3436.79
1375.49	3436.79
1375.98	3436.79
1376.48	3436.79
1376.97	3436.79
1377.46	3436.79
1377.95	3436.79
1378.44	3436.79
1378.94	3436.79
1379.43	3436.79
1379.92	3436.79
1380.41	3436.82
1380.91	3606.61
1381.4	3869.47
1381.89	3923.28
1382.38	3923.28
1382.87	3923.28
1383.37	3923.28
1383.86	3923.28
1384.35	3923.28
1384.84	3923.28
1385.33	3923.28
1385.83	3923.28
1386.32	3923.28
1386.81	3923.28
1387.3	3923.28
1387.8	3923.28
1388.29	3923.28
1388.78	3923.28
1389.27	3923.28
1389.76	3923.28
1390.26	3923.28
1390.75	3923.28
1391.24	3923.28
1391.73	3923.28
1392.22	3923.28
1392.72	3923.28
1393.21	3923.28
1393.7	3923.28
1394.19	3923.28
1394.69	3756.9
1395.18	3457.06
1395.67	3414.92
1396.16	3414.92
1396.65	3414.92
1397.15	3414.92
1397.64	3414.92
1398.13	3414.92
1398.62	3414.92
1399.11	3414.92
1399.61	3414.92
1400.1	3414.92
1400.59	3414.92
1401.08	3414.92
1401.57	3414.92
1402.07	3414.92
1402.56	3414.92
1403.05	3414.92
1403.54	3414.92
1404.04	3414.92
1404.53	3414.92
1405.02	3414.92
1405.51	3414.92
1406	3414.92
1406.5	3414.92
1406.99	3414.92
1407.48	3414.92
1407.97	3414.66
1408.46	2125.38
1408.96	-950.065
1409.45	-1182.2
1409.94	-1182.2
1410.43	-1182.2
1410.93	-1182.2
1411.42	-1182.2
1411.91	-1182.2
1412.4	-1182.2
1412.89	-1182.2
1413.39	-1182.2
1413.88	-1182.2
1414.37	-1182.2
1414.86	-1182.2
1415.35	-1182.2
1415.85	-1182.2
1416.34	-1182.2
1416.83	-1182.2
1417.32	-1182.2
1417.82	-1182.2
1418.31	-1182.2
1418.8	-1182.2
1419.29	-1182.2
1419.78	-1182.2
1420.28	-1182.2
1420.77	-1182.2
1421.26	-1182.2
1421.75	-1182.2
1422.24	-2739.87
1422.74	-4954.91
1423.23	-5640.99
1423.72	-5640.99
1424.21	-5640.99
1424.7	-5640.99
1425.2	-5640.99
1425.69	-5640.99
1426.18	-5640.99
1426.67	-5640.99
1427.17	-5640.99
1427.66	-5640.99
1428.15	-5640.99
1428.64	-5640.99
1429.13	-5640.99
1429.63	-5640.99
1430.12	-5640.99
1430.61	-5640.99
1431.1	-5640.99
1431.59	-5640.99
1432.09	-5640.99
1432.58	-5640.99
1433.07	-5640.99
1433.56	-5640.99
1434.06	-5640.99
1434.55	-5640.99
1435.04	-5640.99
1435.53	-5629.66
1436.02	-5380.34
1436.52	-3702.9
1437.01	-3702.9
1437.5	-3702.9
1437.99	-3702.9
1438.48	-3702.9
1438.98	-3702.9
1439.47	-3702.9
1439.96	-3702.9
1440.45	-3702.9
1440.94	-3702.9
1441.44	-3702.9
1441.93	-3702.9
1442.42	-3702.9
1442.91	-3702.9
1443.41	-3702.9
1443.9	-3702.9
1444.39	-3702.9
1444.88	-3702.9
1445.37	-3702.9
1445.87	-3702.9
1446.36	-3702.9
1446.85	-3702.9
1447.34	-3702.9
1447.83	-3702.9
1448.33	-3702.9
1448.82	-3702.9
1449.31	-3702.84
1449.8	-3395.91
1450.3	-2850.65
1450.79	-2614.74
1451.28	-2614.74
1451.77	-2614.74
1452.26	-2614.74
1452.76	-2614.74
1453.25	-2614.74
1453.74	-2614.74
1454.23	-2614.74
1454.72	-2614.74
1455.22	-2614.74
1455.71	-2614.74
1456.2	-2614.74
1456.69	-2614.74
1457.19	-2614.74
1457.68	-2614.74
1458.17	-2614.74
1458.66	-2614.74
1459.15	-2614.74
1459.65	-2614.74
1460.14	-2614.74
1460.63	-2614.74
1461.12	-2614.74
1461.61	-2614.74
1462.11	-2614.74
1462.6	-2614.74
1463.09	-2614.74
1463.58	-3745.5
1464.07	-9592.52
1464.57	-10979.9
1465.06	-10979.9
1465.55	-10979.9
1466.04	-10979.9
1466.54	-10979.9
1467.03	-10979.9
1467.52	-10979.9
1468.01	-10979.9
1468.5	-10979.9
1469	-10979.9
1469.49	-10979.9
1469.98	-10979.9
1470.47	-10979.9
1470.96	-10979.9
1471.46	-10979.9
1471.95	-10979.9
1472.44	-10979.9
1472.93	-10979.9
1473.43	-10979.9
1473.92	-10979.9
1474.41	-10979.9
1474.9	-10979.9
1475.39	-10979.9
1475.89	-10979.9
1476.38	-10979.9
1476.87	-10980
1477.36	-11417
1477.85	-14407
1478.35	-15508.9
1478.84	-15508.9
1479.33	-15508.9
1479.82	-15508.9
1480.32	-15508.9
1480.81	-15508.9
1481.3	-15508.9
1481.79	-15508.9
1482.28	-15508.9
1482.78	-15508.9
1483.27	-15508.9
1483.76	-15508.9
1484.25	-15508.9
1484.74	-15508.9
1485.24	-15508.9
1485.73	-15508.9
1486.22	-15508.9
1486.71	-15508.9
1487.2	-15508.9
1487.7	-15508.9
1488.19	-15508.9
1488.68	-15508.9
1489.17	-15508.9
1489.67	-15508.9
1490.16	-15508.9
1490.65	-15508.9
1491.14	-14081.9
1491.63	-8826.71
1492.13	-4191.45
1492.62	-4191.45
1493.11	-4191.45
1493.6	-4191.45
1494.09	-4191.45
1494.59	-4191.45
1495.08	-4191.45
1495.57	-4191.45
1496.06	-4191.45
1496.56	-4191.45
1497.05	-4191.45
1497.54	-4191.45
1498.03	-4191.45
1498.52	-4191.45
1499.02	-4191.45
1499.51	-4191.45
1500	-4191.45
1500.49	-4191.45
1500.98	-4191.45
1501.48	-4191.45
1501.97	-4191.45
1502.46	-4191.45
1502.95	-4191.45
1503.44	-4191.45
1503.94	-4191.45
1504.43	-4191.45
1504.92	-4191.45
1505.41	-268.991
1505.91	1952.39
1506.4	2267.21
1506.89	2267.21
1507.38	2267.21
1507.87	2267.21
1508.37	2267.21
1508.86	2267.21
1509.35	2267.21
1509.84	2267.21
1510.33	2267.21
1510.83	2267.21
1511.32	2267.21
1511.81	2267.21
1512.3	2267.21
1512.8	2267.21
1513.29	2267.21
1513.78	2267.21
1514.27	2267.21
1514.76	2267.21
1515.26	2267.21
1515.75	2267.21
1516.24	2267.21
1516.73	2267.21
1517.22	2267.21
1517.72	2267.21
1518.21	2267.21
1518.7	2266.23
1519.19	-2532.53
1519.69	-10023.4
1520.18	-10110
1520.67	-10110
1521.16	-10110
1521.65	-10110
1522.15	-10110
1522.64	-10110
1523.13	-10110
1523.62	-10110
1524.11	-10110
1524.61	-10110
1525.1	-10110
1525.59	-10110
1526.08	-10110
1526.57	-10110
1527.07	-10110
1527.56	-10110
1528.05	-10110
1528.54	-10110
1529.04	-10110
1529.53	-10110
1530.02	-10110
1530.51	-10110
1531	-10110
1531.5	-10110
1531.99	-10110
1532.48	-10110
1532.97	-9899.22
1533.46	-9211.9
1533.96	-9171.84
1534.45	-9171.84
1534.94	-9171.84
1535.43	-9171.84
1535.93	-9171.84
1536.42	-9171.84
1536.91	-9171.84
1537.4	-9171.84
1537.89	-9171.84
1538.39	-9171.84
1538.88	-9171.84
1539.37	-9171.84
1539.86	-9171.84
1540.35	-9171.84
1540.85	-9171.84
1541.34	-9171.84
1541.83	-9171.84
1542.32	-9171.84
1542.82	-9171.84
1543.31	-9171.84
1543.8	-9171.84
1544.29	-9171.84
1544.78	-9171.84
1545.28	-9171.84
1545.77	-9171.84
1546.26	-9170.43
1546.75	-2239.28
1547.24	12280.8
1547.74	20322.7
1548.23	20322.7
1548.72	20322.7
1549.21	20322.7
1549.7	20322.7
1550.2	20322.7
1550.69	20322.7
1551.18	20322.7
1551.67	20322.7
1552.17	20322.7
1552.66	20322.7
1553.15	20322.7
1553.64	20322.7
1554.13	20322.7
1554.63	20322.7
1555.12	20322.7
1555.61	20322.7
1556.1	20322.7
1556.59	20322.7
1557.09	20322.7
1557.58	20322.7
1558.07	20322.7
1558.56	20322.7
1559.06	20322.7
1559.55	20322.7
1560.04	20322.8
1560.53	20725.7
1561.02	26745.9
1561.52	29774.5
1562.01	29774.5
1562.5	29774.5
1562.99	29774.5
1563.48	29774.5
1563.98	29774.5
1564.47	29774.5
1564.96	29774.5
1565.45	29774.5
1565.94	29774.5
1566.44	29774.5
1566.93	29774.5
1567.42	29774.5
1567.91	29774.5
1568.41	29774.5
1568.9	29774.5
1569.39	29774.5
1569.88	29774.5
1570.37	29774.5
1570.87	29774.5
1571.36	29774.5
1571.85	29774.5
1572.34	29774.5
1572.83	29774.5
1573.33	29774.5
1573.82	29774.5
1574.31	29774.5
1574.8	16455.8
1575.3	5821.03
1575.79	4262.16
1576.28	4262.16
1576.77	4262.16
1577.26	4262.16
1577.76	4262.16
1578.25	4262.16
1578.74	4262.16
1579.23	4262.16
1579.72	4262.16
1580.22	4262.16
1580.71	4262.16
1581.2	4262.16
1581.69	4262.16
1582.19	4262.16
1582.68	4262.16
1583.17	4262.16
1583.66	4262.16
1584.15	4262.16
1584.65	4262.16
1585.14	4262.16
1585.63	4262.16
1586.12	4262.16
1586.61	4262.16
1587.11	4262.16
1587.6	4262.17
1588.09	4288.4
1588.58	6637.91
1589.07	17706
1589.57	17706
1590.06	17706
1590.55	17706
1591.04	17706
1591.54	17706
1592.03	17706
1592.52	17706
1593.01	17706
1593.5	17706
1594	17706
1594.49	17706
1594.98	17706
1595.47	17706
1595.96	17706
1596.46	17706
1596.95	17706
1597.44	17706
1597.93	17706
1598.43	17706
1598.92	17706
1599.41	17706
1599.9	17706
1600.39	17706
1600.89	17706
1601.38	17706
1601.87	17707.5
1602.36	24899.2
1602.85	66168
1603.35	81196.1
1603.84	81196.1
1604.33	81196.1
1604.82	81196.1
1605.32	81196.1
1605.81	81196.1
1606.3	81196.1
1606.79	81196.1
1607.28	81196.1
1607.78	81196.1
1608.27	81196.1
1608.76	81196.1
1609.25	81196.1
1609.74	81196.1
1610.24	81196.1
1610.73	81196.1
1611.22	81196.1
1611.71	81196.1
1612.2	81196.1
1612.7	81196.1
1613.19	81196.1
1613.68	81196.1
1614.17	81196.1
1614.67	81196.1
1615.16	81196.1
1615.65	81196.1
1616.14	79867
1616.63	73293.3
1617.13	64503.8
1617.62	64503.8
1618.11	64503.8
1618.6	64503.8
1619.09	64503.8
1619.59	64503.8
1620.08	64503.8
1620.57	64503.8
1621.06	64503.8
1621.56	64503.8
1622.05	64503.8
1622.54	64503.8
1623.03	64503.8
1623.52	64503.8
1624.02	64503.8
1624.51	64503.8
1625	64503.8
1625.49	64503.8
1625.98	64503.8
1626.48	64503.8
1626.97	64503.8
1627.46	64503.8
1627.95	64503.8
1628.44	64503.8
1628.94	64503.8
1629.43	64503.8
1629.92	64494.6
1630.41	19309.3
1630.91	-62071.6
1631.4	-77615.5
1631.89	-77615.5
1632.38	-77615.5
1632.87	-77615.5
1633.37	-77615.5
1633.86	-77615.5
1634.35	-77615.5
1634.84	-77615.5
1635.33	-77615.5
1635.83	-77615.5
1636.32	-77615.5
1636.81	-77615.5
1637.3	-77615.5
1637.8	-77615.5
1638.29	-77615.5
1638.78	-77615.5
1639.27	-77615.5
1639.76	-77615.5
1640.26	-77615.5
1640.75	-77615.5
1641.24	-77615.5
1641.73	-77615.5
1642.22	-77615.5
1642.72	-77615.5
1643.21	-77615.5
1643.7	-77620.8
1644.19	-103881
1644.69	-149559
1645.18	-157857
1645.67	-157857
1646.16	-157857
1646.65	-157857
1647.15	-157857
1647.64	-157857
1648.13	-157857
1648.62	-157857
1649.11	-157857
1649.61	-157857
1650.1	-157857
1650.59	-157857
1651.08	-157857
1651.57	-157857
1652.07	-157857
1652.56	-157857
1653.05	-157857
1653.54	-157857
1654.04	-157857
1654.53	-157857
1655.02	-157857
1655.51	-157857
1656	-157857
1656.5	-157857
1656.99	-157857
1657.48	-157857
1657.97	-44303.1
1658.46	-39028.9
1658.96	-38995.9
1659.45	-38995.9
1659.94	-38995.9
1660.43	-38995.9
1660.93	-38995.9
1661.42	-38995.9
1661.91	-38995.9
1662.4	-38995.9
1662.89	-38995.9
1663.39	-38995.9
1663.88	-38995.9
1664.37	-38995.9
1664.86	-38995.9
1665.35	-38995.9
1665.85	-38995.9
1666.34	-38995.9
1666.83	-38995.9
1667.32	-38995.9
1667.81	-38995.9
1668.31	-38995.9
1668.8	-38995.9
1669.29	-38995.9
1669.78	-38995.9
1670.28	-38995.9
1670.77	-32478.2
1671.26	42461.6
1671.75	104529
1672.24	104529
1672.74	104529
1673.23	104529
1673.72	104529
1674.21	104529
1674.7	104529
1675.2	104529
1675.69	104529
1676.18	104529
1676.67	104529
1677.17	104529
1677.66	104529
1678.15	104529
1678.64	104529
1679.13	104529
1679.63	104529
1680.12	104529
1680.61	104529
1681.1	104529
1681.59	104529
1682.09	104529
1682.58	104529
1683.07	104529
1683.56	104529
1684.06	104529
1684.55	104529
1685.04	103052
1685.53	84309.6
1686.02	56481.9
1686.52	56481.9
1687.01	56481.9
1687.5	56481.9
1687.99	56481.9
1688.48	56481.9
1688.98	56481.9
1689.47	56481.9
1689.96	56481.9
1690.45	56481.9
1690.94	56481.9
1691.44	56481.9
1691.93	56481.9
1692.42	56481.9
1692.91	56481.9
1693.41	56481.9
1693.9	56481.9
1694.39	56481.9
1694.88	56481.9
1695.37	56481.9
1695.87	56481.9
1696.36	56481.9
1696.85	56481.9
1697.34	56481.9
1697.83	56481.9
1698.33	56481.9
1698.82	44026.9
1699.31	-34203.5
1699.8	-75833.1
1700.3	-75833.1
1700.79	-75833.1
1701.28	-75833.1
1701.77	-75833.1
1702.26	-75833.1
1702.76	-75833.1
1703.25	-75833.1
1703.74	-75833.1
1704.23	-75833.1
1704.72	-75833.1
1705.22	-75833.1
1705.71	-75833.1
1706.2	-75833.1
1706.69	-75833.1
1707.19	-75833.1
1707.68	-75833.1
1708.17	-75833.1
1708.66	-75833.1
1709.15	-75833.1
1709.65	-75833.1
1710.14	-75833.1
1710.63	-75833.1
1711.12	-75833.1
1711.61	-75833.1
1712.11	-75831.3
1712.6	-71410.2
1713.09	-53455.8
1713.58	-52173.5
1714.07	-52173.5
1714.57	-52173.5
1715.06	-52173.5
1715.55	-52173.5
1716.04	-52173.5
1716.54	-52173.5
1717.03	-52173.5
1717.52	-52173.5
1718.01	-52173.5
1718.5	-52173.5
1719	-52173.5
1719.49	-52173.5
1719.98	-52173.5
1720.47	-52173.5
1720.96	-52173.5
1721.46	-52173.5
1721.95	-52173.5
1722.44	-52173.5
1722.93	-52173.5
1723.43	-52173.5
1723.92	-52173.5
1724.41	-52173.5
1724.9	-52173.5
1725.39	-52173.5
1725.89	-52134.7
1726.38	43282.2
1726.87	83898.5
1727.36	87798.7
1727.85	87798.7
1728.35	87798.7
1728.84	87798.7
1729.33	87798.7
1729.82	87798.7
1730.32	87798.7
1730.81	87798.7
1731.3	87798.7
1731.79	87798.7
1732.28	87798.7
1732.78	87798.7
1733.27	87798.7
1733.76	87798.7
1734.25	87798.7
1734.74	87798.7
1735.24	87798.7
1735.73	87798.7
1736.22	87798.7
1736.71	87798.7
1737.2	87798.7
1737.7	87798.7
1738.19	87798.7
1738.68	87798.7
1739.17	87798.8
1739.67	88100.4
1740.16	93597.7
1740.65	104005
1741.14	104005
1741.63	104005
1742.13	104005
1742.62	104005
1743.11	104005
1743.6	104005
1744.09	104005
1744.59	104005
1745.08	104005
1745.57	104005
1746.06	104005
1746.56	104005
1747.05	104005
1747.54	104005
1748.03	104005
1748.52	104005
1749.02	104005
1749.51	104005
1750	104005
1750.49	104005
1750.98	104005
1751.48	104005
1751.97	104005
1752.46	104005
1752.95	104005
1753.44	104005
1753.94	29789.1
1754.43	-44255.9
1754.92	-53740.4
1755.41	-53740.4
1755.91	-53740.4
1756.4	-53740.4
1756.89	-53740.4
1757.38	-53740.4
1757.87	-53740.4
1758.37	-53740.4
1758.86	-53740.4
1759.35	-53740.4
1759.84	-53740.4
1760.33	-53740.4
1760.83	-53740.4
1761.32	-53740.4
1761.81	-53740.4
1762.3	-53740.4
1762.8	-53740.4
1763.29	-53740.4
1763.78	-53740.4
1764.27	-53740.4
1764.76	-53740.4
1765.26	-53740.4
1765.75	-53740.4
1766.24	-53740.4
1766.73	-53740.4
1767.22	-90381.8
1767.72	-166913
1768.21	-208625
1768.7	-208625
1769.19	-208625
1769.69	-208625
1770.18	-208625
1770.67	-208625
1771.16	-208625
1771.65	-208625
1772.15	-208625
1772.64	-208625
1773.13	-208625
1773.62	-208625
1774.11	-208625
1774.61	-208625
1775.1	-208625
1775.59	-208625
1776.08	-208625
1776.57	-208625
1777.07	-208625
1777.56	-208625
1778.05	-208625
1778.54	-208625
1779.04	-208625
1779.53	-208625
1780.02	-209283
1780.51	-224955
1781	-230387
1781.5	-230387
1781.99	-230387
1782.48	-230387
1782.97	-230387
1783.46	-230387
1783.96	-230387
1784.45	-230387
1784.94	-230387
1785.43	-230387
1785.93	-230387
1786.42	-230387
1786.91	-230387
1787.4	-230387
1787.89	-230387
1788.39	-230387
1788.88	-230387
1789.37	-230387
1789.86	-230387
1790.35	-230387
1790.85	-230387
1791.34	-230387
1791.83	-230387
1792.32	-230387
1792.82	-230387
1793.31	-221425
1793.8	-157868
1794.29	-120354
1794.78	-120354
1795.28	-120354
1795.77	-120354
1796.26	-120354
1796.75	-120354
1797.24	-120354
1797.74	-120354
1798.23	-120354
1798.72	-120354
1799.21	-120354
1799.7	-120354
1800.2	-120354
1800.69	-120354
1801.18	-120354
1801.67	-120354
1802.17	-120354
1802.66	-120354
1803.15	-120354
1803.64	-120354
1804.13	-120354
1804.63	-120354
1805.12	-120354
1805.61	-120344
1806.1	-96048.8
1806.59	14362.2
1807.09	89482.2
1807.58	89482.2
1808.07	89482.2
1808.56	89482.2
1809.06	89482.2
1809.55	89482.2
1810.04	89482.2
1810.53	89482.2
1811.02	89482.2
1811.52	89482.2
1812.01	89482.2
1812.5	89482.2
1812.99	89482.2
1813.48	89482.2
1813.98	89482.2
1814.47	89482.2
1814.96	89482.2
1815.45	89482.2
1815.94	89482.2
1816.44	89482.2
1816.93	89482.2
1817.42	89482.2
1817.91	89482.2
1818.41	89482.2
1818.9	89482.2
1819.39	89482.2
1819.88	89482.2
1820.37	228911
1820.87	309102
1821.36	321558
1821.85	321558
1822.34	321558
1822.83	321558
1823.33	321558
1823.82	321558
1824.31	321558
1824.8	321558
1825.3	321558
1825.79	321558
1826.28	321558
1826.77	321558
1827.26	321558
1827.76	321558
1828.25	321558
1828.74	321558
1829.23	321558
1829.72	321558
1830.22	321558
1830.71	321558
1831.2	321558
1831.69	321558
1832.19	321558
1832.68	321558
1833.17	321558
1833.66	321558
1834.15	347911
1834.65	408455
1835.14	414708
1835.63	414708
1836.12	414708
1836.61	414708
1837.11	414708
1837.6	414708
1838.09	414708
1838.58	414708
1839.07	414708
1839.57	414708
1840.06	414708
1840.55	414708
1841.04	414708
1841.54	414708
1842.03	414708
1842.52	414708
1843.01	414708
1843.5	414708
1844	414708
1844.49	414708
1844.98	414708
1845.47	414708
1845.96	414708
1846.46	414708
1846.95	414708
1847.44	414708
1847.93	414708
1848.43	371868
1848.92	287889
1849.41	274077
1849.9	274077
1850.39	274077
1850.89	274077
1851.38	274077
1851.87	274077
1852.36	274077
1852.85	274077
1853.35	274077
1853.84	274077
1854.33	274077
1854.82	274077
1855.31	274077
1855.81	274077
1856.3	274077
1856.79	274077
1857.28	274077
1857.78	274077
1858.27	274077
1858.76	274077
1859.25	274077
1859.74	274077
1860.24	274077
1860.73	274077
1861.22	274077
1861.71	274077
1862.2	244248
1862.7	126895
1863.19	13493.7
1863.68	13493.7
1864.17	13493.7
1864.67	13493.7
1865.16	13493.7
1865.65	13493.7
1866.14	13493.7
1866.63	13493.7
1867.13	13493.7
1867.62	13493.7
1868.11	13493.7
1868.6	13493.7
1869.09	13493.7
1869.59	13493.7
1870.08	13493.7
1870.57	13493.7
1871.06	13493.7
1871.56	13493.7
1872.05	13493.7
1872.54	13493.7
1873.03	13493.7
1873.52	13492.7
1874.02	11100.7
1874.51	-60931.3
1875	-60931.3
1875.49	-60931.3
1875.98	-60931.3
1876.48	-60931.3
1876.97	-99725.8
1877.46	-162524
1877.95	-162524
1878.45	-162524
1878.94	-162524
1879.43	-162524
1879.92	-162524
1880.41	-162524
1880.91	-162524
1881.4	-162524
1881.89	-162524
1882.38	-162524
1882.87	-162524
1883.37	-162524
1883.86	-162524
1884.35	-162524
1884.84	-162524
1885.33	-162524
1885.83	-162524
1886.32	-162524
1886.81	-164988
1887.3	-168975
1887.8	-168975
1888.29	-168975
1888.78	-168975
1889.27	-168975
1889.76	-168975
1890.26	-176156
1890.75	-179020
1891.24	-179020
1891.73	-179020
1892.22	-179020
1892.72	-179020
1893.21	-179020
1893.7	-179020
1894.19	-179020
1894.69	-179020
1895.18	-179020
1895.67	-179020
1896.16	-179020
1896.65	-179020
1897.15	-179020
1897.64	-179020
1898.13	-179020
1898.62	-179020
1899.11	-179020
1899.61	-179020
1900.1	-164563
1900.59	-158795
1901.08	-158795
1901.57	-158795
1902.07	-158795
1902.56	-158795
1903.05	-157452
1903.54	-131286
1904.04	-131286
1904.53	-131286
1905.02	-131286
1905.51	-131286
1906	-131286
1906.5	-131286
1906.99	-131286
1907.48	-131286
1907.97	-131286
1908.46	-131286
1908.96	-131286
1909.45	-131286
1909.94	-131286
1910.43	-131286
1910.93	-131286
1911.42	-131286
1911.91	-131286
1912.4	-131286
1912.89	-131521
1913.39	-136093
1913.88	-136093
1914.37	-136093
1914.86	-136093
1915.35	-136093
1915.85	-136093
1916.34	-138279
1916.83	-141819
1917.32	-141819
1917.82	-141819
1918.31	-141819
1918.8	-141819
1919.29	-141819
1919.78	-141819
1920.28	-141819
1920.77	-141819
1921.26	-141819
1921.75	-141819
1922.24	-141819
1922.74	-141819
1923.23	-141819
1923.72	-141819
1924.21	-141819
1924.7	-141819
1925.2	-141819
1925.69	-141819
1926.18	-150912
1926.67	-165629
1927.17	-165629
1927.66	-165629
1928.15	-165629
1928.64	-179488
1929.13	-213693
1929.63	-213693
1930.12	-213693
1930.61	-213693
1931.1	-213693
1931.59	-213693
1932.09	-213693
1932.58	-213693
1933.07	-213693
1933.56	-213693
1934.06	-213693
1934.55	-213693
1935.04	-213693
1935.53	-213693
1936.02	-213693
1936.52	-213693
1937.01	-213693
1937.5	-213693
1937.99	-213693
1938.48	-213693
1938.98	-213693
1939.47	-213693
1939.96	-224510
1940.45	-225248
1940.95	-225248
1941.44	-225248
1941.93	-225248
1942.42	-225249
1942.91	-227010
1943.41	-231789
1943.9	-231789
1944.39	-231789
1944.88	-231789
1945.37	-231789
1945.87	-231789
1946.36	-231789
1946.85	-231789
1947.34	-231789
1947.83	-231789
1948.33	-231789
1948.82	-231789
1949.31	-231789
1949.8	-231789
1950.3	-231789
1950.79	-231789
1951.28	-231789
1951.77	-231789
1952.26	-231781
1952.76	-212248
1953.25	-159263
1953.74	-159263
1954.23	-159263
1954.72	-159263
1955.22	-159263
1955.71	-159254
1956.2	-137845
1956.69	-123730
1957.19	-123730
1957.68	-123730
1958.17	-123730
1958.66	-123730
1959.15	-123730
1959.65	-123730
1960.14	-123730
1960.63	-123730
1961.12	-123730
1961.61	-123730
1962.11	-123730
1962.6	-123730
1963.09	-123730
1963.58	-123730
1964.07	-123730
1964.57	-123730
1965.06	-123730
1965.55	-123730
1966.04	-123730
1966.54	-123730
1967.03	-115362
1967.52	24363.2
1968.01	25853
1968.5	25853
1969	25853
1969.49	25853
1969.98	25853
1970.47	25853
1970.96	25853
1971.46	25853
1971.95	25853
1972.44	25853
1972.93	25853
1973.43	25853
1973.92	25853
1974.41	25853
1974.9	25853
1975.39	25853
1975.89	25853
1976.38	25853
1976.87	25853
1977.36	25853
1977.85	25853
1978.35	25853
1978.84	25853
1979.33	25853
1979.82	25853
1980.32	25865.6
1980.81	56860.9
1981.3	91079.6
1981.79	101103
1982.28	101103
1982.78	101103
1983.27	101103
1983.76	101103
1984.25	101103
1984.74	101103
1985.24	101103
1985.73	101103
1986.22	101103
1986.71	101103
1987.2	101103
1987.7	101103
1988.19	101103
1988.68	101103
1989.17	101103
1989.67	101103
1990.16	101103
1990.65	101103
1991.14	101103
1991.63	101103
1992.13	101103
1992.62	101103
1993.11	101103
1993.6	101103
1994.09	101104
1994.59	103733
1995.08	117910
1995.57	127774
1996.06	127774
1996.56	127774
1997.05	127774
1997.54	127774
1998.03	127774
1998.52	127774
1999.02	127774
1999.51	127774
2000	127774
2000.49	127774
2000.98	127774
2001.48	127774
2001.97	127774
2002.46	127774
2002.95	127774
2003.44	127774
2003.94	127774
2004.43	127774
2004.92	127774
2005.41	127774
2005.91	127774
2006.4	127774
2006.89	127774
2007.38	127774
2007.87	127774
2008.37	127774
2008.86	131707
2009.35	169608
2009.84	184335
2010.33	184335
2010.83	184335
2011.32	184335
2011.81	184335
2012.3	184335
2012.8	184335
2013.29	184335
2013.78	184335
2014.27	184335
2014.76	184335
2015.26	184335
2015.75	184335
2016.24	184335
2016.73	184335
2017.22	184335
2017.72	184335
2018.21	184335
2018.7	184335
2019.19	184335
2019.69	184335
2020.18	184335
2020.67	184335
2021.16	184335
2021.65	184335
2022.15	184336
2022.64	186552
2023.13	200432
2023.62	223224
2024.11	223224
2024.61	223224
2025.1	223224
2025.59	223224
2026.08	223224
2026.57	223224
2027.07	223224
2027.56	223224
2028.05	223224
2028.54	223224
2029.04	223224
2029.53	223224
2030.02	223224
2030.51	223224
2031	223224
2031.5	223224
2031.99	223224
2032.48	223224
2032.97	223224
2033.46	223224
2033.96	223224
2034.45	223224
2034.94	223224
2035.43	223224
2035.93	223224
2036.42	223224
2036.91	223216
2037.4	202450
2037.89	172788
2038.39	166537
2038.88	166537
2039.37	166537
2039.86	166537
2040.35	166537
2040.85	166537
2041.34	166537
2041.83	166537
2042.32	166537
2042.82	166537
2043.31	166537
2043.8	166537
2044.29	166537
2044.78	166537
2045.28	166537
2045.77	166537
2046.26	166537
2046.75	166537
2047.24	166537
2047.74	166537
2048.23	166537
2048.72	166537
2049.21	166537
2049.7	166537
2050.2	166537
2050.69	166537
2051.18	166537
2051.67	160848
2052.17	130602
2052.66	91462.4
2053.15	91462.4
2053.64	91462.4
2054.13	91462.4
2054.63	91462.4
2055.12	91462.4
2055.61	91462.4
2056.1	91462.4
2056.59	91462.4
2057.09	91462.4
2057.58	91462.4
2058.07	91462.4
2058.56	91462.4
2059.06	91462.4
2059.55	91462.4
2060.04	91462.4
2060.53	91462.4
2061.02	91462.4
2061.52	91462.4
2062.01	91462.4
2062.5	91462.4
2062.99	91462.4
2063.48	91462.4
2063.98	91462.4
2064.47	91462.4
2064.96	91462.4
2065.45	91465.8
2065.94	99733.8
2066.44	101413
2066.93	101514
2067.42	101514
2067.91	101514
2068.41	101514
2068.9	101514
2069.39	101514
2069.88	101514
2070.37	101514
2070.87	101514
2071.36	101514
2071.85	101514
2072.34	101514
2072.83	101514
2073.33	101514
2073.82	101514
2074.31	101514
2074.8	101514
2075.3	101514
2075.79	101514
2076.28	101514
2076.77	101514
2077.26	101514
2077.76	101514
2078.25	101514
2078.74	101514
2079.23	101514
2079.72	103080
2080.22	105772
2080.71	106821
2081.2	106821
2081.69	106821
2082.19	106821
2082.68	106821
2083.17	106821
2083.66	106821
2084.15	106821
2084.65	106821
2085.14	106821
2085.63	106821
2086.12	106821
2086.61	106821
2087.11	106821
2087.6	106821
2088.09	106821
2088.58	106821
2089.07	106821
2089.57	106821
2090.06	106821
2090.55	106821
2091.04	106821
2091.54	106821
2092.03	106821
2092.52	106821
2093.01	106821
2093.5	106821
2094	106821
2094.49	-19597
2094.98	-27665.5
2095.47	-27838.3
2095.96	-27838.3
2096.46	-27838.3
2096.95	-27838.3
2097.44	-27838.3
2097.93	-27838.3
2098.43	-27838.3
2098.92	-27838.3
2099.41	-27838.3
2099.9	-27838.3
2100.39	-27838.3
2100.89	-27838.3
2101.38	-27838.3
2101.87	-27838.3
2102.36	-27838.3
2102.85	-27838.3
2103.35	-27838.3
2103.84	-27838.3
2104.33	-27838.3
2104.82	-27838.3
2105.31	-27838.3
2105.81	-27838.3
2106.3	-27838.3
2106.79	-27838.3
2107.28	-27870.8
2107.78	-107836
2108.27	-194768
2108.76	-214914
2109.25	-214914
2109.74	-214914
2110.24	-214914
2110.73	-214914
2111.22	-214914
2111.71	-214914
2112.2	-214914
2112.7	-214914
2113.19	-214914
2113.68	-214914
2114.17	-214914
2114.67	-214914
2115.16	-214914
2115.65	-214914
2116.14	-214914
2116.63	-214914
2117.13	-214914
2117.62	-214914
2118.11	-214914
2118.6	-214914
2119.09	-214914
2119.59	-214914
2120.08	-214914
2120.57	-216460
2121.06	-231639
2121.56	-272660
2122.05	-272660
2122.54	-272660
2123.03	-272660
2123.52	-272660
2124.02	-272660
2124.51	-272660
2125	-272660
2125.49	-272660
2125.98	-272660
2126.48	-272660
2126.97	-272660
2127.46	-272660
2127.95	-272660
2128.44	-272660
2128.94	-272660
2129.43	-272660
2129.92	-272660
2130.41	-272660
2130.91	-272660
2131.4	-272660
2131.89	-272660
2132.38	-272660
2132.87	-272660
2133.37	-272660
2133.86	-272660
2134.35	-249301
2134.84	-224564
2135.33	-217885
2135.83	-217885
2136.32	-217885
2136.81	-217885
2137.3	-217885
2137.8	-217885
2138.29	-217885
2138.78	-217885
2139.27	-217885
2139.76	-217885
2140.26	-217885
2140.75	-217885
2141.24	-217885
2141.73	-217885
2142.22	-217885
2142.72	-217885
2143.21	-217885
2143.7	-217885
2144.19	-217885
2144.69	-217885
2145.18	-217885
2145.67	-217885
2146.16	-217885
2146.65	-217885
2147.15	-217885
2147.64	-208884
2148.13	-185025
2148.62	-182842
2149.11	-182842
2149.61	-182842
2150.1	-182842
2150.59	-182842
2151.08	-182842
2151.57	-182842
2152.07	-182842
2152.56	-182842
2153.05	-182842
2153.54	-182842
2154.04	-182842
2154.53	-182842
2155.02	-182842
2155.51	-182842
2156	-182842
2156.5	-182842
2156.99	-182842
2157.48	-182842
2157.97	-182842
2158.46	-182842
2158.96	-182842
2159.45	-182842
2159.94	-182842
2160.43	-182842
2160.93	-175745
2161.42	-155282
2161.91	-151822
2162.4	-151822
2162.89	-151822
2163.39	-151822
2163.88	-151822
2164.37	-151822
2164.86	-151822
2165.35	-151822
2165.85	-151822
2166.34	-151822
2166.83	-151822
2167.32	-151822
2167.81	-151822
2168.31	-151822
2168.8	-151822
2169.29	-151822
2169.78	-151822
2170.28	-151822
2170.77	-151822
2171.26	-151822
2171.75	-151822
2172.24	-151822
2172.74	-151822
2173.23	-151822
2173.72	-151816
2174.21	-137583
2174.7	-81630.3
2175.2	-29430
2175.69	-29430
2176.18	-29430
2176.67	-29430
2177.17	-29430
2177.66	-29430
2178.15	-29430
2178.64	-29430
2179.13	-29430
2179.63	-29430
2180.12	-29430
2180.61	-29430
2181.1	-29430
2181.59	-29430
2182.09	-29430
2182.58	-29430
2183.07	-29430
2183.56	-29430
2184.06	-29430
2184.55	-29430
2185.04	-29430
2185.53	-29430
2186.02	-29430
2186.52	-29430
2187.01	-29430
2187.5	-29430
2187.99	-29430
2188.48	93980.1
2188.98	130287
2189.47	131413
2189.96	131413
2190.45	131413
2190.95	131413
2191.44	131413
2191.93	131413
2192.42	131413
2192.91	131413
2193.41	131413
2193.9	131413
2194.39	131413
2194.88	131413
2195.37	131413
2195.87	131413
2196.36	131413
2196.85	131413
2197.34	131413
2197.83	131413
2198.33	131413
2198.82	131413
2199.31	131413
2199.8	131413
2200.3	131413
2200.79	131413
2201.28	131413
2201.77	131417
2202.26	142436
2202.76	176731
2203.25	199586
2203.74	199586
2204.23	199586
2204.72	199586
2205.22	199586
2205.71	199586
2206.2	199586
2206.69	199586
2207.19	199586
2207.68	199586
2208.17	199586
2208.66	199586
2209.15	199586
2209.65	199586
2210.14	199586
2210.63	199586
2211.12	199586
2211.61	199586
2212.11	199586
2212.6	199586
2213.09	199586
2213.58	199586
2214.07	199586
2214.57	199586
2215.06	199586
2215.55	199586
2216.04	199586
2216.54	198238
2217.03	180592
2217.52	172744
2218.01	172744
2218.5	172744
2219	172744
2219.49	172744
2219.98	172744
2220.47	172744
2220.96	172744
2221.46	172744
2221.95	172744
2222.44	172744
2222.93	172744
2223.43	172744
2223.92	172744
2224.41	172744
2224.9	172744
2225.39	172744
2225.89	172744
2226.38	172744
2226.87	172744
2227.36	172744
2227.85	172744
2228.35	172744
2228.84	172744
2229.33	172744
2229.82	172744
2230.32	172744
2230.81	172629
2231.3	147246
2231.79	130950
2232.28	130950
2232.78	130950
2233.27	130950
2233.76	130950
2234.25	130950
2234.74	130950
2235.24	130950
2235.73	130950
2236.22	130950
2236.71	130950
2237.2	130950
2237.7	130950
2238.19	130950
2238.68	130950
2239.17	130950
2239.67	130950
2240.16	130950
2240.65	130950
2241.14	130950
2241.63	130950
2242.13	130950
2242.62	130950
2243.11	130950
2243.6	130950
2244.09	130950
2244.59	130950
2245.08	129189
2245.57	115422
2246.06	88248
2246.56	88248
2247.05	88248
2247.54	88248
2248.03	88248
2248.52	88248
2249.02	88248
2249.51	88248
2250	88248
2250.49	88248
2250.98	88248
2251.48	88248
2251.97	88248
2252.46	88248
2252.95	88248
2253.45	88248
2253.94	88248
2254.43	88248
2254.92	88248
2255.41	88248
2255.91	88248
2256.4	88248
2256.89	88248
2257.38	88248
2257.87	88248
2258.37	88248
2258.86	88248
2259.35	88248
2259.84	63177.8
2260.33	40533.4
2260.83	35024.2
2261.32	35024.2
2261.81	35024.2
2262.3	35024.2
2262.8	35024.2
2263.29	35024.2
2263.78	35024.2
2264.27	35024.2
2264.76	35024.2
2265.26	35024.2
2265.75	35024.2
2266.24	35024.2
2266.73	35024.2
2267.22	35024.2
2267.72	35024.2
2268.21	35024.2
2268.7	35024.2
2269.19	35024.2
2269.69	35024.2
2270.18	35024.2
2270.67	35024.2
2271.16	35024.2
2271.65	35024.2
2272.15	35024.2
2272.64	35024.2
2273.13	35024
2273.62	34486.1
2274.11	26519
2274.61	5586.22
2275.1	5586.22
2275.59	5586.22
2276.08	5586.22
2276.57	5586.22
2277.07	5586.22
2277.56	5586.22
2278.05	5586.22
2278.54	5586.22
2279.04	5586.22
2279.53	5586.22
2280.02	5586.22
2280.51	5586.22
2281	5586.22
2281.5	5586.22
2281.99	5586.22
2282.48	5586.22
2282.97	5586.22
2283.46	5586.22
2283.96	5586.22
2284.45	5586.22
2284.94	5586.22
2285.43	5586.22
2285.93	5586.22
2286.42	5586.22
2286.91	5586.22
2287.4	5586.22
2287.89	5583.49
2288.39	-1130.83
2288.88	-5726.4
2289.37	-6556.07
2289.86	-6556.07
2290.35	-6556.07
2290.85	-6556.07
2291.34	-6556.07
2291.83	-6556.07
2292.32	-6556.07
2292.82	-6556.07
2293.31	-6556.07
2293.8	-6556.07
2294.29	-6556.07
2294.78	-6556.07
2295.28	-6556.07
2295.77	-6556.07
2296.26	-6556.07
2296.75	-6556.07
2297.24	-6556.07
2297.74	-6556.07
2298.23	-6556.07
2298.72	-6556.07
2299.21	-6556.07
2299.7	-6556.07
2300.2	-6556.07
2300.69	-6556.07
2301.18	-6556.07
2301.67	-6556.07
2302.17	-6556.07
2302.66	-23636.9
2303.15	-60139.8
2303.64	-60786.5
2304.13	-60786.5
2304.63	-60786.5
2305.12	-60786.5
2305.61	-60786.5
2306.1	-60786.5
2306.59	-60786.5
2307.09	-60786.5
2307.58	-60786.5
2308.07	-60786.5
2308.56	-60786.5
2309.06	-60786.5
2309.55	-60786.5
2310.04	-60786.5
2310.53	-60786.5
2311.02	-60786.5
2311.52	-60786.5
2312.01	-60786.5
2312.5	-60786.5
2312.99	-60786.5
2313.48	-60786.5
2313.98	-60786.5
2314.47	-60786.5
2314.96	-60786.5
2315.45	-60786.5
2315.95	-60786.5
2316.44	-60798.2
2316.93	-89507.5
2317.42	-122845
2317.91	-127744
2318.41	-127744
2318.9	-127744
2319.39	-127744
2319.88	-127744
2320.37	-127744
2320.87	-127744
2321.36	-127744
2321.85	-127744
2322.34	-127744
2322.83	-127744
2323.33	-127744
2323.82	-127744
2324.31	-127744
2324.8	-127744
2325.3	-127744
2325.79	-127744
2326.28	-127744
2326.77	-127744
2327.26	-127744
2327.76	-127744
2328.25	-127744
2328.74	-127744
2329.23	-127744
2329.72	-127744
2330.22	-127744
2330.71	-124626
2331.2	-114687
2331.69	-106436
2332.19	-106436
2332.68	-106436
2333.17	-106436
2333.66	-106436
2334.15	-106436
2334.65	-106436
2335.14	-106436
2335.63	-106436
2336.12	-106436
2336.61	-106436
2337.11	-106436
2337.6	-106436
2338.09	-106436
2338.58	-106436
2339.07	-106436
2339.57	-106436
2340.06	-106436
2340.55	-106436
2341.04	-106436
2341.54	-106436
2342.03	-106436
2342.52	-106436
2343.01	-106436
2343.5	-106436
2344	-106436
2344.49	-106436
2344.98	-106436
2345.47	-40077.8
2345.96	-21149.7
2346.46	-20195.5
2346.95	-20195.5
2347.44	-20195.5
2347.93	-20195.5
2348.43	-20195.5
2348.92	-20195.5
2349.41	-20195.5
2349.9	-20195.5
2350.39	-20195.5
2350.89	-20195.5
2351.38	-20195.5
2351.87	-20195.5
2352.36	-20195.5
2352.85	-20195.5
2353.35	-20195.5
2353.84	-20195.5
2354.33	-20195.5
2354.82	-20195.5
2355.31	-20195.5
2355.81	-20195.5
2356.3	-20195.5
2356.79	-20195.5
2357.28	-20195.5
2357.78	-20195.5
2358.27	-20195.5
2358.76	-20195.5
2359.25	-19155.7
2359.74	-4106.01
2360.24	10184.7
2360.73	10184.7
2361.22	10184.7
2361.71	10184.7
2362.2	10184.7
2362.7	10184.7
2363.19	10184.7
2363.68	10184.7
2364.17	10184.7
2364.67	10184.7
2365.16	10184.7
2365.65	10184.7
2366.14	10184.7
2366.63	10184.7
2367.13	10184.7
2367.62	10184.7
2368.11	10184.7
2368.6	10184.7
2369.09	10184.7
2369.59	10184.7
2370.08	10184.7
2370.57	10184.7
2371.06	10184.7
2371.56	10184.7
2372.05	10184.7
2372.54	10184.7
2373.03	10184.7
2373.52	10175.5
2374.02	9655.21
2374.51	-402.564
2375	-402.564
2375.49	-402.564
2375.98	-402.564
2376.48	-402.564
2376.97	-402.564
2377.46	-402.564
2377.95	-402.564
2378.44	-402.564
2378.94	-402.564
2379.43	-402.564
2379.92	-402.564
2380.41	-402.564
2380.91	-402.564
2381.4	-402.564
2381.89	-402.564
2382.38	-402.564
2382.87	-402.564
2383.37	-402.564
2383.86	-402.564
2384.35	-402.564
2384.84	-402.564
2385.33	-402.564
2385.83	-402.564
2386.32	-402.564
2386.81	-402.564
2387.3	-402.564
2387.8	-401.271
2388.29	2774.68
2388.78	34036.2
2389.27	56044.4
2389.76	56044.4
2390.26	56044.4
2390.75	56044.4
2391.24	56044.4
2391.73	56044.4
2392.22	56044.4
2392.72	56044.4
2393.21	56044.4
2393.7	56044.4
2394.19	56044.4
2394.69	56044.4
2395.18	56044.4
2395.67	56044.4
2396.16	56044.4
2396.65	56044.4
2397.15	56044.4
2397.64	56044.4
2398.13	56044.4
2398.62	56044.4
2399.11	56044.4
2399.61	56044.4
2400.1	56044.4
2400.59	56044.4
2401.08	56044.4
2401.57	56044.4
2402.07	56044.4
2402.56	56046.4
2403.05	60923.6
2403.54	103782
2404.04	113116
2404.53	113116
2405.02	113116
2405.51	113116
2406	113116
2406.5	113116
2406.99	113116
2407.48	113116
2407.97	113116
2408.46	113116
2408.96	113116
2409.45	113116
2409.94	113116
2410.43	113116
2410.93	113116
2411.42	113116
2411.91	113116
2412.4	113116
2412.89	113116
2413.39	113116
2413.88	113116
2414.37	113116
2414.86	113116
2415.35	113116
2415.85	113116
2416.34	113116
2416.83	113116
2417.32	113099
2417.81	70395.2
2418.31	24036.6
2418.8	10582.7
2419.29	10582.7
2419.78	10582.7
2420.28	10582.7
2420.77	10582.7
2421.26	10582.7
2421.75	10582.7
2422.24	10582.7
2422.74	10582.7
2423.23	10582.7
2423.72	10582.7
2424.21	10582.7
2424.7	10582.7
2425.2	10582.7
2425.69	10582.7
2426.18	10582.7
2426.67	10582.7
2427.17	10582.7
2427.66	10582.7
2428.15	10582.7
2428.64	10582.7
2429.13	10582.7
2429.63	10582.7
2430.12	10582.7
2430.61	10582.7
2431.1	10582.7
2431.59	10582.7
2432.09	-7506.18
2432.58	-102426
2433.07	-157801
2433.56	-157801
2434.06	-157801
2434.55	-157801
2435.04	-157801
2435.53	-157801
2436.02	-157801
2436.52	-157801
2437.01	-157801
2437.5	-157801
2437.99	-157801
2438.48	-157801
2438.98	-157801
2439.47	-157801
2439.96	-157801
2440.45	-157801
2440.94	-157801
2441.44	-157801
2441.93	-157801
2442.42	-157801
2442.91	-157801
2443.41	-157801
2443.9	-157801
2444.39	-157801
2444.88	-157801
2445.37	-157801
2445.87	-157801
2446.36	-150533
2446.85	-135444
2447.34	-130449
2447.83	-130449
2448.33	-130449
2448.82	-130449
2449.31	-130449
2449.8	-130449
2450.3	-130449
2450.79	-130449
2451.28	-130449
2451.77	-130449
2452.26	-130449
2452.76	-130449
2453.25	-130449
2453.74	-130449
2454.23	-130449
2454.72	-130449
2455.22	-130449
2455.71	-130449
2456.2	-130449
2456.69	-130449
2457.19	-130449
2457.68	-130449
2458.17	-130449
2458.66	-130449
2459.15	-130449
2459.65	-130449
2460.14	-108839
2460.63	-22012.2
2461.12	65655.4
2461.61	65655.4
2462.11	65655.4
2462.6	65655.4
2463.09	65655.4
2463.58	65655.4
2464.07	65655.4
2464.57	65655.4
2465.06	65655.4
2465.55	65655.4
2466.04	65655.4
2466.54	65655.4
2467.03	65655.4
2467.52	65655.4
2468.01	65655.4
2468.5	65655.4
2469	65655.4
2469.49	65655.4
2469.98	65655.4
2470.47	65655.4
2470.96	65655.4
2471.46	65655.4
2471.95	65655.4
2472.44	65655.4
2472.93	65655.4
2473.43	65655.4
2473.92	65655.4
2474.41	65655.4
2474.9	84410
2475.39	122285
2475.89	130694
2476.38	130694
2476.87	130694
2477.36	130694
2477.85	130694
2478.35	130694
2478.84	130694
2479.33	130694
2479.82	130694
2480.31	130694
2480.81	130694
2481.3	130694
2481.79	130694
2482.28	130694
2482.78	130694
2483.27	130694
2483.76	130694
2484.25	130694
2484.74	130694
2485.24	130694
2485.73	130694
2486.22	130694
2486.71	130694
2487.2	130694
2487.7	130694
2488.19	130694
2488.68	130694
2489.17	130694
2489.67	89885.4
2490.16	8663.79
2490.65	7194.89
2491.14	7194.89
2491.63	7194.89
2492.13	7194.89
2492.62	7194.89
2493.11	7194.89
2493.6	7194.89
2494.09	7194.89
2494.59	7194.89
2495.08	7194.89
2495.57	7194.89
2496.06	7194.89
2496.56	7194.89
2497.05	7194.89
2497.54	7194.89
2498.03	7194.89
2498.52	7194.89
2499.02	7194.89
2499.51	7194.89
2500	7194.89
2500.49	7194.89
2500.98	7194.89
2501.48	7194.89
2501.97	7194.89
2502.46	7194.89
2502.95	7194.89
2503.45	7190.48
2503.94	-3647.23
2504.43	-35797.8
2504.92	-40305.1
2505.41	-40305.1
2505.91	-40305.1
2506.4	-40305.1
2506.89	-40305.1
2507.38	-40305.1
2507.87	-40305.1
2508.37	-40305.1
2508.86	-40305.1
2509.35	-40305.1
2509.84	-40305.1
2510.33	-40305.1
2510.83	-40305.1
2511.32	-40305.1
2511.81	-40305.1
2512.3	-40305.1
2512.8	-40305.1
2513.29	-40305.1
2513.78	-40305.1
2514.27	-40305.1
2514.76	-40305.1
2515.26	-40305.1
2515.75	-40305.1
2516.24	-40305.1
2516.73	-40305.1
2517.22	-40305.1
2517.72	-40305.1
2518.21	-2657.56
2518.7	56002.6
2519.19	67080.1
2519.69	67080.1
2520.18	67080.1
2520.67	67080.1
2521.16	67080.1
2521.65	67080.1
2522.15	67080.1
2522.64	67080.1
2523.13	67080.1
2523.62	67080.1
2524.11	67080.1
2524.61	67080.1
2525.1	67080.1
2525.59	67080.1
2526.08	67080.1
2526.57	67080.1
2527.07	67080.1
2527.56	67080.1
2528.05	67080.1
2528.54	67080.1
2529.04	67080.1
2529.53	67080.1
2530.02	67080.1
2530.51	67080.1
2531	67080.1
2531.5	67080.1
2531.99	67082
2532.48	71776.1
2532.97	86230.6
2533.46	86825.8
2533.96	86825.8
2534.45	86825.8
2534.94	86825.8
2535.43	86825.8
2535.93	86825.8
2536.42	86825.8
2536.91	86825.8
2537.4	86825.8
2537.89	86825.8
2538.39	86825.8
2538.88	86825.8
2539.37	86825.8
2539.86	86825.8
2540.35	86825.8
2540.85	86825.8
2541.34	86825.8
2541.83	86825.8
2542.32	86825.8
2542.82	86825.8
2543.31	86825.8
2543.8	86825.8
2544.29	86825.8
2544.78	86825.8
2545.28	86825.8
2545.77	86825.8
2546.26	86825.8
2546.75	86808.5
2547.24	44430.3
2547.74	-26175.6
2548.23	-55950.3
2548.72	-55950.3
2549.21	-55950.3
2549.7	-55950.3
2550.2	-55950.3
2550.69	-55950.3
2551.18	-55950.3
2551.67	-55950.3
2552.17	-55950.3
2552.66	-55950.3
2553.15	-55950.3
2553.64	-55950.3
2554.13	-55950.3
2554.63	-55950.3
2555.12	-55950.3
2555.61	-55950.3
2556.1	-55950.3
2556.59	-55950.3
2557.09	-55950.3
2557.58	-55950.3
2558.07	-55950.3
2558.56	-55950.3
2559.06	-55950.3
2559.55	-55950.3
2560.04	-55950.3
2560.53	-55950.3
2561.02	-57186.6
2561.52	-82140.9
2562.01	-107842
2562.5	-107842
2562.99	-107842
2563.48	-107842
2563.98	-107842
2564.47	-107842
2564.96	-107842
2565.45	-107842
2565.95	-107842
2566.44	-107842
2566.93	-107842
2567.42	-107842
2567.91	-107842
2568.41	-107842
2568.9	-107842
2569.39	-107842
2569.88	-107842
2570.37	-107842
2570.87	-107842
2571.36	-107842
2571.85	-107842
2572.34	-107842
2572.83	-107842
2573.33	-107842
2573.82	-107842
2574.31	-107842
2574.8	-107818
2575.3	-48483.7
2575.79	9289.3
2576.28	22271.8
2576.77	22271.8
2577.26	22271.8
2577.76	22271.8
2578.25	22271.8
2578.74	22271.8
2579.23	22271.8
2579.72	22271.8
2580.22	22271.8
2580.71	22271.8
2581.2	22271.8
2581.69	22271.8
2582.19	22271.8
2582.68	22271.8
2583.17	22271.8
2583.66	22271.8
2584.15	22271.8
2584.65	22271.8
2585.14	22271.8
2585.63	22271.8
2586.12	22271.8
2586.61	22271.8
2587.11	22271.8
2587.6	22271.8
2588.09	22271.8
2588.58	22271.8
2589.07	22271.8
2589.57	23915.1
2590.06	38932.9
2590.55	73003
2591.04	73003
2591.54	73003
2592.03	73003
2592.52	73003
2593.01	73003
2593.5	73003
2594	73003
2594.49	73003
2594.98	73003
2595.47	73003
2595.96	73003
2596.46	73003
2596.95	73003
2597.44	73003
2597.93	73003
2598.43	73003
2598.92	73003
2599.41	73003
2599.9	73003
2600.39	73003
2600.89	73003
2601.38	73003
2601.87	73003
2602.36	73003
2602.85	73003
2603.35	73003
2603.84	73003
2604.33	1410.89
2604.82	-57832.7
2605.32	-70596.8
2605.81	-70596.8
2606.3	-70596.8
2606.79	-70596.8
2607.28	-70596.8
2607.78	-70596.8
2608.27	-70596.8
2608.76	-70596.8
2609.25	-70596.8
2609.74	-70596.8
2610.24	-70596.8
2610.73	-70596.8
2611.22	-70596.8
2611.71	-70596.8
2612.2	-70596.8
2612.7	-70596.8
2613.19	-70596.8
2613.68	-70596.8
2614.17	-70596.8
2614.67	-70596.8
2615.16	-70596.8
2615.65	-70596.8
2616.14	-70596.8
2616.63	-70596.8
2617.13	-70596.8
2617.62	-70598.5
2618.11	-74849.2
2618.6	-100238
2619.09	-141004
2619.59	-141004
2620.08	-141004
2620.57	-141004
2621.06	-141004
2621.56	-141004
2622.05	-141004
2622.54	-141004
2623.03	-141004
2623.52	-141004
2624.02	-141004
2624.51	-141004
2625	-141004
2625.49	-141004
2625.98	-141004
2626.48	-141004
2626.97	-141004
2627.46	-141004
2627.95	-141004
2628.45	-141004
2628.94	-141004
2629.43	-141004
2629.92	-141004
2630.41	-141004
2630.91	-141004
2631.4	-141004
2631.89	-141004
2632.38	-139412
2632.87	-21885.4
2633.37	15007.5
2633.86	15007.5
2634.35	15007.5
2634.84	15007.5
2635.33	15007.5
2635.83	15007.5
2636.32	15007.5
2636.81	15007.5
2637.3	15007.5
2637.8	15007.5
2638.29	15007.5
2638.78	15007.5
2639.27	15007.5
2639.76	15007.5
2640.26	15007.5
2640.75	15007.5
2641.24	15007.5
2641.73	15007.5
2642.22	15007.5
2642.72	15007.5
2643.21	15007.5
2643.7	15007.5
2644.19	15007.5
2644.69	15007.5
2645.18	15007.5
2645.67	15007.5
2646.16	15013.5
2646.65	29865.6
2647.15	85756.5
2647.64	140700
2648.13	140700
2648.62	140700
2649.11	140700
2649.61	140700
2650.1	140700
2650.59	140700
2651.08	140700
2651.57	140700
2652.07	140700
2652.56	140700
2653.05	140700
2653.54	140700
2654.04	140700
2654.53	140700
2655.02	140700
2655.51	140700
2656	140700
2656.5	140700
2656.99	140700
2657.48	140700
2657.97	140700
2658.46	140700
2658.96	140700
2659.45	140700
2659.94	140700
2660.43	140700
2660.93	140700
2661.42	140700
2661.91	64658.6
2662.4	40254.1
2662.89	38213.8
2663.39	38213.8
2663.88	38213.8
2664.37	38213.8
2664.86	38213.8
2665.35	38213.8
2665.85	38213.8
2666.34	38213.8
2666.83	38213.8
2667.32	38213.8
2667.81	38213.8
2668.31	38213.8
2668.8	38213.8
2669.29	38213.8
2669.78	38213.8
2670.28	38213.8
2670.77	38213.8
2671.26	38213.8
2671.75	38213.8
2672.24	38213.8
2672.74	38213.8
2673.23	38213.8
2673.72	38213.8
2674.21	38213.8
2674.7	38213.8
2675.2	38213.8
2675.69	38200.2
2676.18	4782.42
2676.67	-61052.1
2677.17	-76664.3
2677.66	-76664.3
2678.15	-76664.3
2678.64	-76664.3
2679.13	-76664.3
2679.63	-76664.3
2680.12	-76664.3
2680.61	-76664.3
2681.1	-76664.3
2681.59	-76664.3
2682.09	-76664.3
2682.58	-76664.3
2683.07	-76664.3
2683.56	-76664.3
2684.06	-76664.3
2684.55	-76664.3
2685.04	-76664.3
2685.53	-76664.3
2686.02	-76664.3
2686.52	-76664.3
2687.01	-76664.3
2687.5	-76664.3
2687.99	-76664.3
2688.48	-76664.3
2688.98	-76664.3
2689.47	-76664.3
2689.96	-76664.3
2690.45	-47249.7
2690.94	9352.7
2691.44	15072.1
2691.93	15072.1
2692.42	15072.1
2692.91	15072.1
2693.41	15072.1
2693.9	15072.1
2694.39	15072.1
2694.88	15072.1
2695.37	15072.1
2695.87	15072.1
2696.36	15072.1
2696.85	15072.1
2697.34	15072.1
2697.83	15072.1
2698.33	15072.1
2698.82	15072.1
2699.31	15072.1
2699.8	15072.1
2700.3	15072.1
2700.79	15072.1
2701.28	15072.1
2701.77	15072.1
2702.26	15072.1
2702.76	15072.1
2703.25	15072.1
2703.74	15072.1
2704.23	15082.8
2704.72	41463.7
2705.22	103010
2705.71	141243
2706.2	141243
2706.69	141243
2707.19	141243
2707.68	141243
2708.17	141243
2708.66	141243
2709.15	141243
2709.65	141243
2710.14	141243
2710.63	141243
2711.12	141243
2711.61	141243
2712.11	141243
2712.6	141243
2713.09	141243
2713.58	141243
2714.07	141243
2714.57	141243
2715.06	141243
2715.55	141243
2716.04	141243
2716.54	141243
2717.03	141243
2717.52	141243
2718.01	141243
2718.5	141243
2719	141243
2719.49	141243
2719.98	93696.8
2720.47	71664.6
2720.96	70797.5
2721.46	70797.5
2721.95	70797.5
2722.44	70797.5
2722.93	70797.5
2723.43	70797.5
2723.92	70797.5
2724.41	70797.5
2724.9	70797.5
2725.39	70797.5
2725.89	70797.5
2726.38	70797.5
2726.87	70797.5
2727.36	70797.5
2727.85	70797.5
2728.35	70797.5
2728.84	70797.5
2729.33	70797.5
2729.82	70797.5
2730.31	70797.5
2730.81	70797.5
2731.3	70797.5
2731.79	70797.5
2732.28	70797.5
2732.78	70797.5
2733.27	70797.5
2733.76	70795.6
2734.25	66218.5
2734.74	-8117.06
2735.24	-79069.8
2735.73	-79069.8
2736.22	-79069.8
2736.71	-79069.8
2737.2	-79069.8
2737.7	-79069.8
2738.19	-79069.8
2738.68	-79069.8
2739.17	-79069.8
2739.67	-79069.8
2740.16	-79069.8
2740.65	-79069.8
2741.14	-79069.8
2741.63	-79069.8
2742.13	-79069.8
2742.62	-79069.8
2743.11	-79069.8
2743.6	-79069.8
2744.09	-79069.8
2744.59	-79069.8
2745.08	-79069.8
2745.57	-79069.8
2746.06	-79069.8
2746.56	-79069.8
2747.05	-79069.8
2747.54	-79069.8
2748.03	-79069.9
2748.52	-79396.3
2749.02	-85770
2749.51	-86061.4
2750	-86061.4
2750.49	-86061.4
2750.98	-86061.4
2751.48	-86061.4
2751.97	-86061.4
2752.46	-86061.4
2752.95	-86061.4
2753.45	-86061.4
2753.94	-86061.4
2754.43	-86061.4
2754.92	-86061.4
2755.41	-86061.4
2755.91	-86061.4
2756.4	-86061.4
2756.89	-86061.4
2757.38	-86061.4
2757.87	-86061.4
2758.37	-86061.4
2758.86	-86061.4
2759.35	-86061.4
2759.84	-86061.4
2760.33	-86061.4
2760.83	-86061.4
2761.32	-86061.4
2761.81	-86061.4
2762.3	-86061.4
2762.8	-86051.8
2763.29	-62390.5
2763.78	-23082.6
2764.27	-5990.59
2764.76	-5990.59
2765.26	-5990.59
2765.75	-5990.59
2766.24	-5990.59
2766.73	-5990.59
2767.22	-5990.59
2767.72	-5990.59
2768.21	-5990.59
2768.7	-5990.59
2769.19	-5990.59
2769.69	-5990.59
2770.18	-5990.59
2770.67	-5990.59
2771.16	-5990.59
2771.65	-5990.59
2772.15	-5990.59
2772.64	-5990.59
2773.13	-5990.59
2773.62	-5990.59
2774.11	-5990.59
2774.61	-5990.59
2775.1	-5990.59
2775.59	-5990.59
2776.08	-5990.59
2776.57	-5990.59
2777.07	-5990.59
2777.56	-6178.71
2778.05	-7913.15
2778.54	-11038.2
2779.04	-11038.2
2779.53	-11038.2
2780.02	-11038.2
2780.51	-11038.2
2781	-11038.2
2781.5	-11038.2
2781.99	-11038.2
2782.48	-11038.2
2782.97	-11038.2
2783.46	-11038.2
2783.96	-11038.2
2784.45	-11038.2
2784.94	-11038.2
2785.43	-11038.2
2785.93	-11038.2
2786.42	-11038.2
2786.91	-11038.2
2787.4	-11038.2
2787.89	-11038.2
2788.39	-11038.2
2788.88	-11038.2
2789.37	-11038.2
2789.86	-11038.2
2790.35	-11038.2
2790.85	-11038.2
2791.34	-11038.2
2791.83	-11038.2
2792.32	-17498.5
2792.82	-50529.1
2793.31	-67180
2793.8	-67180
2794.29	-67180
2794.78	-67180
2795.28	-67180
2795.77	-67180
2796.26	-67180
2796.75	-67180
2797.24	-67180
2797.74	-67180
2798.23	-67180
2798.72	-67180
2799.21	-67180
2799.7	-67180
2800.2	-67180
2800.69	-67180
2801.18	-67180
2801.67	-67180
2802.17	-67180
2802.66	-67180
2803.15	-67180
2803.64	-67180
2804.13	-67180
2804.63	-67180
2805.12	-67180
2805.61	-67180
2806.1	-67180
2806.59	-67180
2807.09	-64360.3
2807.58	-50845.4
2808.07	-48969.6
2808.56	-48969.6
2809.06	-48969.6
2809.55	-48969.6
2810.04	-48969.6
2810.53	-48969.6
2811.02	-48969.6
2811.52	-48969.6
2812.01	-48969.6
2812.5	-48969.6
2812.99	-48969.6
2813.48	-48969.6
2813.98	-48969.6
2814.47	-48969.6
2814.96	-48969.6
2815.45	-48969.6
2815.95	-48969.6
2816.44	-48969.6
2816.93	-48969.6
2817.42	-48969.6
2817.91	-48969.6
2818.41	-48969.6
2818.9	-48969.6
2819.39	-48969.6
2819.88	-48969.6
2820.37	-48969.6
2820.87	-48969.6
2821.36	-48969.6
2821.85	-35054.7
2822.34	-3653.69
2822.83	7599.04
2823.33	7599.04
2823.82	7599.04
2824.31	7599.04
2824.8	7599.04
2825.3	7599.04
2825.79	7599.04
2826.28	7599.04
2826.77	7599.04
2827.26	7599.04
2827.76	7599.04
2828.25	7599.04
2828.74	7599.04
2829.23	7599.04
2829.72	7599.04
2830.22	7599.04
2830.71	7599.04
2831.2	7599.04
2831.69	7599.04
2832.19	7599.04
2832.68	7599.04
2833.17	7599.04
2833.66	7599.04
2834.15	7599.04
2834.65	7599.04
2835.14	7599.04
2835.63	7599.04
2836.12	7599.04
2836.61	7033.44
2837.11	5033.9
2837.6	4550.19
2838.09	4550.19
2838.58	4550.19
2839.07	4550.19
2839.57	4550.19
2840.06	4550.19
2840.55	4550.19
2841.04	4550.19
2841.54	4550.19
2842.03	4550.19
2842.52	4550.19
2843.01	4550.19
2843.5	4550.19
2844	4550.19
2844.49	4550.19
2844.98	4550.19
2845.47	4550.19
2845.96	4550.19
2846.46	4550.19
2846.95	4550.19
2847.44	4550.19
2847.93	4550.19
2848.43	4550.19
2848.92	4550.19
2849.41	4550.19
2849.9	4550.19
2850.39	4550.19
2850.89	4550.19
2851.38	2914.82
2851.87	-18080.8
2852.36	-24833.5
2852.85	-24833.5
2853.35	-24833.5
2853.84	-24833.5
2854.33	-24833.5
2854.82	-24833.5
2855.32	-24833.5
2855.81	-24833.5
2856.3	-24833.5
2856.79	-24833.5
2857.28	-24833.5
2857.78	-24833.5
2858.27	-24833.5
2858.76	-24833.5
2859.25	-24833.5
2859.74	-24833.5
2860.24	-24833.5
2860.73	-24833.5
2861.22	-24833.5
2861.71	-24833.5
2862.2	-24833.5
2862.7	-24833.5
2863.19	-24833.5
2863.68	-24833.5
2864.17	-24833.5
2864.67	-24833.5
2865.16	-24833.5
2865.65	-24833.5
2866.14	-24694.2
2866.63	-20815.6
2867.13	-11363.3
2867.62	-11363.3
2868.11	-11363.3
2868.6	-11363.3
2869.09	-11363.3
2869.59	-11363.3
2870.08	-11363.3
2870.57	-11363.3
2871.06	-11363.3
2871.56	-11363.3
2872.05	-11363.3
2872.54	-11363.3
2873.03	-11363.3
2873.52	-11363.3
2874.02	-11363.3
2874.51	-11363.3
2875	-11363.3
2875.49	-11363.3
2875.98	-11363.3
2876.48	-11363.3
2876.97	-11363.3
2877.46	-11363.3
2877.95	-11363.3
2878.45	-11363.3
2878.94	-11363.3
2879.43	-11363.3
2879.92	-11363.3
2880.41	-11363.3
2880.91	-11358
2881.4	1731.24
2881.89	13507.1
2882.38	15780.1
2882.87	15780.1
2883.37	15780.1
2883.86	15780.1
2884.35	15780.1
2884.84	15780.1
2885.33	15780.1
2885.83	15780.1
2886.32	15780.1
2886.81	15780.1
2887.3	15780.1
2887.8	15780.1
2888.29	15780.1
2888.78	15780.1
2889.27	15780.1
2889.76	15780.1
2890.26	15780.1
2890.75	15780.1
2891.24	15780.1
2891.73	15780.1
2892.22	15780.1
2892.72	15780.1
2893.21	15780.1
2893.7	15780.1
2894.19	15780.1
2894.69	15780.1
2895.18	15780.1
2895.67	15780.7
2896.16	17354.8
2896.65	23469.5
2897.15	29860.9
2897.64	29860.9
2898.13	29860.9
2898.62	29860.9
2899.11	29860.9
2899.61	29860.9
2900.1	29860.9
2900.59	29860.9
2901.08	29860.9
2901.57	29860.9
2902.07	29860.9
2902.56	29860.9
2903.05	29860.9
2903.54	29860.9
2904.04	29860.9
2904.53	29860.9
2905.02	29860.9
2905.51	29860.9
2906	29860.9
2906.5	29860.9
2906.99	29860.9
2907.48	29860.9
2907.97	29860.9
2908.46	29860.9
2908.96	29860.9
2909.45	29860.9
2909.94	29860.9
2910.43	29860.9
2910.93	29864.5
2911.42	38640
2911.91	65902.5
2912.4	71073.4
2912.89	71073.4
2913.39	71073.4
2913.88	71073.4
2914.37	71073.4
2914.86	71073.4
2915.35	71073.4
2915.85	71073.4
2916.34	71073.4
2916.83	71073.4
2917.32	71073.4
2917.82	71073.4
2918.31	71073.4
2918.8	71073.4
2919.29	71073.4
2919.78	71073.4
2920.28	71073.4
2920.77	71073.4
2921.26	71073.4
2921.75	71073.4
2922.24	71073.4
2922.74	71073.4
2923.23	71073.4
2923.72	71073.4
2924.21	71073.4
2924.7	71073.4
2925.2	71073.4
2925.69	71073.4
2926.18	71073.4
2926.67	85773.3
2927.17	112885
2927.66	113120
2928.15	113120
2928.64	113120
2929.13	113120
2929.63	113120
2930.12	113120
2930.61	113120
2931.1	113120
2931.59	113120
2932.09	113120
2932.58	113120
2933.07	113120
2933.56	113120
2934.06	113120
2934.55	113120
2935.04	113120
2935.53	113120
2936.02	113120
2936.52	113120
2937.01	113120
2937.5	113120
2937.99	113120
2938.48	113120
2938.98	113120
2939.47	113120
2939.96	113120
2940.45	113120
2940.95	113120
2941.44	113111
2941.93	91752.7
2942.42	71966.7
2942.91	69165.7
2943.41	69165.7
2943.9	69165.7
2944.39	69165.7
2944.88	69165.7
2945.37	69165.7
2945.87	69165.7
2946.36	69165.7
2946.85	69165.7
2947.34	69165.7
2947.83	69165.7
2948.33	69165.7
2948.82	69165.7
2949.31	69165.7
2949.8	69165.7
2950.3	69165.7
2950.79	69165.7
2951.28	69165.7
2951.77	69165.7
2952.26	69165.7
2952.76	69165.7
2953.25	69165.7
2953.74	69165.7
2954.23	69165.7
2954.72	69165.7
2955.22	69165.7
2955.71	69165.7
2956.2	69163.1
2956.69	62857.2
2957.19	31087.7
2957.68	-5332.01
2958.17	-5332.01
2958.66	-5332.01
2959.15	-5332.01
2959.65	-5332.01
2960.14	-5332.01
2960.63	-5332.01
2961.12	-5332.01
2961.61	-5332.01
2962.11	-5332.01
2962.6	-5332.01
2963.09	-5332.01
2963.58	-5332.01
2964.07	-5332.01
2964.57	-5332.01
2965.06	-5332.01
2965.55	-5332.01
2966.04	-5332.01
2966.54	-5332.01
2967.03	-5332.01
2967.52	-5332.01
2968.01	-5332.01
2968.5	-5332.01
2969	-5332.01
2969.49	-5332.01
2969.98	-5332.01
2970.47	-5332.01
2970.96	-5332.01
2971.46	-5332.01
2971.95	447.072
2972.44	27496.3
2972.93	30562.9
2973.43	30562.9
2973.92	30562.9
2974.41	30562.9
2974.9	30562.9
2975.39	30562.9
2975.89	30562.9
2976.38	30562.9
2976.87	30562.9
2977.36	30562.9
2977.85	30562.9
2978.35	30562.9
2978.84	30562.9
2979.33	30562.9
2979.82	30562.9
2980.31	30562.9
2980.81	30562.9
2981.3	30562.9
2981.79	30562.9
2982.28	30562.9
2982.78	30562.9
2983.27	30562.9
2983.76	30562.9
2984.25	30562.9
2984.74	30562.9
2985.24	30562.9
2985.73	30562.9
2986.22	30562.9
2986.71	33455.7
2987.2	63263.3
2987.7	99745.3
2988.19	99745.3
2988.68	99745.3
2989.17	99745.3
2989.67	99745.3
2990.16	99745.3
2990.65	99745.3
2991.14	99745.3
2991.63	99745.3
2992.13	99745.3
2992.62	99745.3
2993.11	99745.3
2993.6	99745.3
2994.09	99745.3
2994.59	99745.3
2995.08	99745.3
2995.57	99745.3
2996.06	99745.3
2996.56	99745.3
2997.05	99745.3
2997.54	99745.3
2998.03	99745.3
2998.52	99745.3
2999.02	99745.3
2999.51	99745.3
3000	99745.3
3000.49	99745.3
3000.98	99745.3
3001.48	99740.2
3001.97	87167.5
3002.46	-12399.8
3002.95	-19110.4
3003.44	-19110.4
3003.94	-19110.4
3004.43	-19110.4
3004.92	-19110.4
3005.41	-19110.4
3005.91	-19110.4
3006.4	-19110.4
3006.89	-19110.4
3007.38	-19110.4
3007.87	-19110.4
3008.37	-19110.4
3008.86	-19110.4
3009.35	-19110.4
3009.84	-19110.4
3010.33	-19110.4
3010.83	-19110.4
3011.32	-19110.4
3011.81	-19110.4
3012.3	-19110.4
3012.8	-19110.4
3013.29	-19110.4
3013.78	-19110.4
3014.27	-19110.4
3014.76	-19110.4
3015.26	-19110.4
3015.75	-19110.4
3016.24	-19110.4
3016.73	-19146.5
3017.22	-107955
3017.72	-233932
3018.21	-259461
3018.7	-259461
3019.19	-259461
3019.69	-259461
3020.18	-259461
3020.67	-259461
3021.16	-259461
3021.65	-259461
3022.15	-259461
3022.64	-259461
3023.13	-259461
3023.62	-259461
3024.11	-259461
3024.61	-259461
3025.1	-259461
3025.59	-259461
3026.08	-259461
3026.57	-259461
3027.07	-259461
3027.56	-259461
3028.05	-259461
3028.54	-259461
3029.04	-259461
3029.53	-259461
3030.02	-259461
3030.51	-259461
3031	-259523
3031.5	-266737
3031.99	-289562
3032.48	-289740
3032.97	-289740
3033.46	-289740
3033.96	-289740
3034.45	-289740
3034.94	-289740
3035.43	-289740
3035.93	-289740
3036.42	-289740
3036.91	-289740
3037.4	-289740
3037.89	-289740
3038.39	-289740
3038.88	-289740
3039.37	-289740
3039.86	-289740
3040.35	-289740
3040.85	-289740
3041.34	-289740
3041.83	-289740
3042.32	-289740
3042.81	-289740
3043.31	-289740
3043.8	-289740
3044.29	-289740
3044.78	-289740
3045.28	-289174
3045.77	-162606
3046.26	-57110.9
3046.75	-57110.9
3047.24	-57110.9
3047.74	-57110.9
3048.23	-57110.9
3048.72	-57110.9
3049.21	-57110.9
3049.7	-57110.9
3050.2	-57110.9
3050.69	-57110.9
3051.18	-57110.9
3051.67	-57110.9
3052.17	-57110.9
3052.66	-57110.9
3053.15	-57110.9
3053.64	-57110.9
3054.13	-57110.9
3054.63	-57110.9
3055.12	-57110.9
3055.61	-57110.9
3056.1	-57110.9
3056.59	-57110.9
3057.09	-57110.9
3057.58	-57110.9
3058.07	-57110.9
3058.56	-57110.9
3059.06	-57110.9
3059.55	-57109.8
3060.04	-54417.5
3060.53	-14885.8
3061.02	109990
3061.52	109990
3062.01	109990
3062.5	109990
3062.99	109990
3063.48	109990
3063.98	109990
3064.47	109990
3064.96	109990
3065.45	109990
3065.95	109990
3066.44	109990
3066.93	109990
3067.42	109990
3067.91	109990
3068.41	109990
3068.9	109990
3069.39	109990
3069.88	109990
3070.37	109990
3070.87	109990
3071.36	109990
3071.85	109990
3072.34	109990
3072.83	109990
3073.33	109990
3073.82	109990
3074.31	109990
3074.8	109990
3075.3	109468
3075.79	81357.4
3076.28	61599.5
3076.77	61599.5
3077.26	61599.5
3077.76	61599.5
3078.25	61599.5
3078.74	61599.5
3079.23	61599.5
3079.72	61599.5
3080.22	61599.5
3080.71	61599.5
3081.2	61599.5
3081.69	61599.5
3082.19	61599.5
3082.68	61599.5
3083.17	61599.5
3083.66	61599.5
3084.15	61599.5
3084.65	61599.5
3085.14	61599.5
3085.63	61599.5
3086.12	61599.5
3086.61	61599.5
3087.11	61599.5
3087.6	61599.5
3088.09	61599.5
3088.58	61599.5
3089.07	61599.5
3089.57	61599.5
3090.06	61575.6
3090.55	58539.4
3091.04	34042
3091.54	34042
3092.03	34042
3092.52	34042
3093.01	34042
3093.5	34042
3094	34042
3094.49	34042
3094.98	34042
3095.47	34042
3095.96	34042
3096.46	34042
3096.95	34042
3097.44	34042
3097.93	34042
3098.43	34042
3098.92	34042
3099.41	34042
3099.9	34042
3100.39	34042
3100.89	34042
3101.38	34042
3101.87	34042
3102.36	34042
3102.85	34042
3103.35	34042
3103.84	34042
3104.33	34042
3104.82	34049
3105.32	51218.2
3105.81	110634
3106.3	140602
3106.79	140602
3107.28	140602
3107.78	140602
3108.27	140602
3108.76	140602
3109.25	140602
3109.74	140602
3110.24	140602
3110.73	140602
3111.22	140602
3111.71	140602
3112.2	140602
3112.7	140602
3113.19	140602
3113.68	140602
3114.17	140602
3114.67	140602
3115.16	140602
3115.65	140602
3116.14	140602
3116.63	140602
3117.13	140602
3117.62	140602
3118.11	140602
3118.6	140602
3119.09	140602
3119.59	140602
3120.08	140602
3120.57	140660
3121.06	141004
3121.56	141008
3122.05	141008
3122.54	141008
3123.03	141008
3123.52	141008
3124.02	141008
3124.51	141008
3125	141008
3125.49	141008
3125.98	141008
3126.48	141008
3126.97	141008
3127.46	141008
3127.95	141008
3128.45	141008
3128.94	141008
3129.43	141008
3129.92	141008
3130.41	141008
3130.91	141008
3131.4	141008
3131.89	141008
3132.38	141008
3132.87	141008
3133.37	141008
3133.86	141008
3134.35	141008
3134.84	141008
3135.33	141008
3135.83	67167.5
3136.32	-26943.1
3136.81	-57784.5
3137.3	-57784.5
3137.8	-57784.5
3138.29	-57784.5
3138.78	-57784.5
3139.27	-57784.5
3139.76	-57784.5
3140.26	-57784.5
3140.75	-57784.5
3141.24	-57784.5
3141.73	-57784.5
3142.22	-57784.5
3142.72	-57784.5
3143.21	-57784.5
3143.7	-57784.5
3144.19	-57784.5
3144.69	-57784.5
3145.18	-57784.5
3145.67	-57784.5
3146.16	-57784.5
3146.65	-57784.5
3147.15	-57784.5
3147.64	-57784.5
3148.13	-57784.5
3148.62	-57784.5
3149.11	-57784.5
3149.61	-57785.1
3150.1	-59341.5
3150.59	-81181.7
3151.08	-150171
3151.57	-150171
3152.07	-150171
3152.56	-150171
3153.05	-150171
3153.54	-150171
3154.04	-150171
3154.53	-150171
3155.02	-150171
3155.51	-150171
3156	-150171
3156.5	-150171
3156.99	-150171
3157.48	-150171
3157.97	-150171
3158.46	-150171
3158.96	-150171
3159.45	-150171
3159.94	-150171
3160.43	-150171
3160.93	-150171
3161.42	-150171
3161.91	-150171
3162.4	-150171
3162.89	-150171
3163.39	-150171
3163.88	-150171
3164.37	-150148
3164.86	-93219.3
3165.35	6672.38
3165.85	37553.1
3166.34	37553.1
3166.83	37553.1
3167.32	37553.1
3167.82	37553.1
3168.31	37553.1
3168.8	37553.1
3169.29	37553.1
3169.78	37553.1
3170.28	37553.1
3170.77	37553.1
3171.26	37553.1
3171.75	37553.1
3172.24	37553.1
3172.74	37553.1
3173.23	37553.1
3173.72	37553.1
3174.21	37553.1
3174.7	37553.1
3175.2	37553.1
3175.69	37553.1
3176.18	37553.1
3176.67	37553.1
3177.17	37553.1
3177.66	37553.1
3178.15	37553.1
3178.64	37553.1
3179.13	37562.5
3179.63	60575.3
3180.12	145365
3180.61	202213
3181.1	202213
3181.59	202213
3182.09	202213
3182.58	202213
3183.07	202213
3183.56	202213
3184.06	202213
3184.55	202213
3185.04	202213
3185.53	202213
3186.02	202213
3186.52	202213
3187.01	202213
3187.5	202213
3187.99	202213
3188.48	202213
3188.98	202213
3189.47	202213
3189.96	202213
3190.45	202213
3190.95	202213
3191.44	202213
3191.93	202213
3192.42	202213
3192.91	202213
3193.41	202213
3193.9	202213
3194.39	202213
3194.88	202190
3195.37	144826
3195.87	77395.8
3196.36	60438.3
3196.85	60438.3
3197.34	60438.3
3197.83	60438.3
3198.33	60438.3
3198.82	60438.3
3199.31	60438.3
3199.8	60438.3
3200.3	60438.3
3200.79	60438.3
3201.28	60438.3
3201.77	60438.3
3202.26	60438.3
3202.76	60438.3
3203.25	60438.3
3203.74	60438.3
3204.23	60438.3
3204.72	60438.3
3205.22	60438.3
3205.71	60438.3
3206.2	60438.3
3206.69	60438.3
3207.19	60438.3
3207.68	60438.3
3208.17	60438.3
3208.66	60438.3
3209.15	60438.3
3209.65	47994.1
3210.14	-40265.7
3210.63	-191477
3211.12	-191477
3211.61	-191477
3212.11	-191477
3212.6	-191477
3213.09	-191477
3213.58	-191477
3214.07	-191477
3214.57	-191477
3215.06	-191477
3215.55	-191477
3216.04	-191477
3216.54	-191477
3217.03	-191477
3217.52	-191477
3218.01	-191477
3218.5	-191477
3219	-191477
3219.49	-191477
3219.98	-191477
3220.47	-191477
3220.96	-191477
3221.46	-191477
3221.95	-191477
3222.44	-191477
3222.93	-191477
3223.43	-191477
3223.92	-191477
3224.41	-199026
3224.9	-223318
3225.39	-228440
3225.89	-228440
3226.38	-228440
3226.87	-228440
3227.36	-228440
3227.85	-228440
3228.35	-228440
3228.84	-228440
3229.33	-228440
3229.82	-228440
3230.32	-228440
3230.81	-228440
3231.3	-228440
3231.79	-228440
3232.28	-228440
3232.78	-228440
3233.27	-228440
3233.76	-228440
3234.25	-228440
3234.74	-228440
3235.24	-228440
3235.73	-228440
3236.22	-228440
3236.71	-228440
3237.2	-228440
3237.7	-228440
3238.19	-228432
3238.68	-209625
3239.17	-142704
3239.67	-79070
3240.16	-79070
3240.65	-79070
3241.14	-79070
3241.63	-79070
3242.13	-79070
3242.62	-79070
3243.11	-79070
3243.6	-79070
3244.09	-79070
3244.59	-79070
3245.08	-79070
3245.57	-79070
3246.06	-79070
3246.56	-79070
3247.05	-79070
3247.54	-79070
3248.03	-79070
3248.52	-79070
3249.02	-79070
3249.51	-79070
3250	-79070
3250.49	-79070
3250.98	-79070
3251.48	-79070
3251.97	-79070
3252.46	-79070
3252.95	-79069.1
3253.45	-76965.2
3253.94	27647.7
3254.43	40792
3254.92	40792
3255.41	40792
3255.91	40792
3256.4	40792
3256.89	40792
3257.38	40792
3257.87	40792
3258.37	40792
3258.86	40792
3259.35	40792
3259.84	40792
3260.33	40792
3260.83	40792
3261.32	40792
3261.81	40792
3262.3	40792
3262.8	40792
3263.29	40792
3263.78	40792
3264.27	40792
3264.76	40792
3265.26	40792
3265.75	40792
3266.24	40792
3266.73	40792
3267.22	40792
3267.72	40794.9
3268.21	48011.4
3268.7	72103
3269.19	92774.3
3269.69	92774.3
3270.18	92774.3
3270.67	92774.3
3271.16	92774.3
3271.65	92774.3
3272.15	92774.3
3272.64	92774.3
3273.13	92774.3
3273.62	92774.3
3274.11	92774.3
3274.61	92774.3
3275.1	92774.3
3275.59	92774.3
3276.08	92774.3
3276.57	92774.3
3277.07	92774.3
3277.56	92774.3
3278.05	92774.3
3278.54	92774.3
3279.04	92774.3
3279.53	92774.3
3280.02	92774.3
3280.51	92774.3
3281	92774.3
3281.5	92774.3
3281.99	92774.3
3282.48	92774.3
3282.97	92774.3
3283.46	92790.1
3283.96	131530
3284.45	135665
3284.94	135775
3285.43	135775
3285.93	135775
3286.42	135775
3286.91	135775
3287.4	135775
3287.89	135775
3288.39	135775
3288.88	135775
3289.37	135775
3289.86	135775
3290.35	135775
3290.85	135775
3291.34	135775
3291.83	135775
3292.32	135775
3292.82	135775
3293.31	135775
3293.8	135775
3294.29	135775
3294.78	135775
3295.28	135775
3295.77	135775
3296.26	135775
3296.75	135775
3297.24	135775
3297.74	135775
3298.23	135774
3298.72	134246
3299.21	127422
3299.7	120934
3300.2	120934
3300.69	120934
3301.18	120934
3301.67	120934
3302.17	120934
3302.66	120934
3303.15	120934
3303.64	120934
3304.13	120934
3304.63	120934
3305.12	120934
3305.61	120934
3306.1	120934
3306.59	120934
3307.09	120934
3307.58	120934
3308.07	120934
3308.56	120934
3309.06	120934
3309.55	120934
3310.04	120934
3310.53	120934
3311.02	120934
3311.52	120934
3312.01	120934
3312.5	120934
3312.99	120934
3313.48	120934
3313.98	103936
3314.47	21134.2
3314.96	17023.8
3315.45	17023.8
3315.95	17023.8
3316.44	17023.8
3316.93	17023.8
3317.42	17023.8
3317.91	17023.8
3318.41	17023.8
3318.9	17023.8
3319.39	17023.8
3319.88	17023.8
3320.37	17023.8
3320.87	17023.8
3321.36	17023.8
3321.85	17023.8
3322.34	17023.8
3322.83	17023.8
3323.33	17023.8
3323.82	17023.8
3324.31	17023.8
3324.8	17023.8
3325.3	17023.8
3325.79	17023.8
3326.28	17023.8
3326.77	17023.8
3327.26	17023.8
3327.76	17023.8
3328.25	17023.8
3328.74	17012.5
3329.23	-10698.4
3329.72	-47345.7
3330.22	-54149.8
3330.71	-54149.8
3331.2	-54149.8
3331.69	-54149.8
3332.19	-54149.8
3332.68	-54149.8
3333.17	-54149.8
3333.66	-54149.8
3334.15	-54149.8
3334.65	-54149.8
3335.14	-54149.8
3335.63	-54149.8
3336.12	-54149.8
3336.61	-54149.8
3337.11	-54149.8
3337.6	-54149.8
3338.09	-54149.8
3338.58	-54149.8
3339.07	-54149.8
3339.57	-54149.8
3340.06	-54149.8
3340.55	-54149.8
3341.04	-54149.8
3341.54	-54149.8
3342.03	-54149.8
3342.52	-54149.8
3343.01	-54149.8
3343.5	-54149.8
3344	-54138.6
3344.49	-26700.3
3344.98	-10869.9
3345.47	-10486.1
3345.96	-10486.1
3346.46	-10486.1
3346.95	-10486.1
3347.44	-10486.1
3347.93	-10486.1
3348.43	-10486.1
3348.92	-10486.1
3349.41	-10486.1
3349.9	-10486.1
3350.39	-10486.1
3350.89	-10486.1
3351.38	-10486.1
3351.87	-10486.1
3352.36	-10486.1
3352.85	-10486.1
3353.35	-10486.1
3353.84	-10486.1
3354.33	-10486.1
3354.82	-10486.1
3355.31	-10486.1
3355.81	-10486.1
3356.3	-10486.1
3356.79	-10486.1
3357.28	-10486.1
3357.78	-10486.1
3358.27	-10486.1
3358.76	-10479.2
3359.25	6576.7
3359.74	29936.7
3360.24	37165.7
3360.73	37165.7
3361.22	37165.7
3361.71	37165.7
3362.2	37165.7
3362.7	37165.7
3363.19	37165.7
3363.68	37165.7
3364.17	37165.7
3364.67	37165.7
3365.16	37165.7
3365.65	37165.7
3366.14	37165.7
3366.63	37165.7
3367.13	37165.7
3367.62	37165.7
3368.11	37165.7
3368.6	37165.7
3369.09	37165.7
3369.59	37165.7
3370.08	37165.7
3370.57	37165.7
3371.06	37165.7
3371.56	37165.7
3372.05	37165.7
3372.54	37165.7
3373.03	37165.7
3373.52	37165.7
3374.02	37062.4
3374.51	33209.8
3375	-14010
3375.49	-14010
3375.98	-14010
3376.48	-14010
3376.97	-14010
3377.46	-14010
3377.95	-14010
3378.44	-14010
3378.94	-14010
3379.43	-14010
3379.92	-14010
3380.41	-14010
3380.91	-14010
3381.4	-14010
3381.89	-14010
3382.38	-14010
3382.87	-14010
3383.37	-14010
3383.86	-14010
3384.35	-14010
3384.84	-14010
3385.33	-14010
3385.83	-14010
3386.32	-14010
3386.81	-14010
3387.3	-14010
3387.8	-14010
3388.29	-14010
3388.78	-14010
3389.27	-14010
3389.76	-14035.8
3390.26	-45691.7
3390.75	-76702.5
3391.24	-78574.2
3391.73	-78574.2
3392.22	-78574.2
3392.72	-78574.2
3393.21	-78574.2
3393.7	-78574.2
3394.19	-78574.2
3394.69	-78574.2
3395.18	-78574.2
3395.67	-78574.2
3396.16	-78574.2
3396.65	-78574.2
3397.15	-78574.2
3397.64	-78574.2
3398.13	-78574.2
3398.62	-78574.2
3399.11	-78574.2
3399.61	-78574.2
3400.1	-78574.2
3400.59	-78574.2
3401.08	-78574.2
3401.57	-78574.2
3402.07	-78574.2
3402.56	-78574.2
3403.05	-78574.2
3403.54	-78574.2
3404.04	-78574.2
3404.53	-78416
3405.02	-74775.3
3405.51	-50883.8
3406	-50883.8
3406.5	-50883.8
3406.99	-50883.8
3407.48	-50883.8
3407.97	-50883.8
3408.46	-50883.8
3408.96	-50883.8
3409.45	-50883.8
3409.94	-50883.8
3410.43	-50883.8
3410.93	-50883.8
3411.42	-50883.8
3411.91	-50883.8
3412.4	-50883.8
3412.89	-50883.8
3413.39	-50883.8
3413.88	-50883.8
3414.37	-50883.8
3414.86	-50883.8
3415.35	-50883.8
3415.85	-50883.8
3416.34	-50883.8
3416.83	-50883.8
3417.32	-50883.8
3417.81	-50883.8
3418.31	-50883.8
3418.8	-50883.8
3419.29	-50883.8
3419.78	-50877.5
3420.28	-43185.3
3420.77	-12972.6
3421.26	7259.52
3421.75	7259.52
3422.24	7259.52
3422.74	7259.52
3423.23	7259.52
3423.72	7259.52
3424.21	7259.52
3424.71	7259.52
3425.2	7259.52
3425.69	7259.52
3426.18	7259.52
3426.67	7259.52
3427.17	7259.52
3427.66	7259.52
3428.15	7259.52
3428.64	7259.52
3429.13	7259.52
3429.63	7259.52
3430.12	7259.52
3430.61	7259.52
3431.1	7259.52
3431.59	7259.52
3432.09	7259.52
3432.58	7259.52
3433.07	7259.52
3433.56	7259.52
3434.06	7259.52
3434.55	7259.52
3435.04	7259.52
3435.53	7259.52
3436.02	6519.71
3436.52	-8301.31
3437.01	-12655.4
3437.5	-12655.4
3437.99	-12655.4
3438.48	-12655.4
3438.98	-12655.4
3439.47	-12655.4
3439.96	-12655.4
3440.45	-12655.4
3440.95	-12655.4
3441.44	-12655.4
3441.93	-12655.4
3442.42	-12655.4
3442.91	-12655.4
3443.41	-12655.4
3443.9	-12655.4
3444.39	-12655.4
3444.88	-12655.4
3445.37	-12655.4
3445.87	-12655.4
3446.36	-12655.4
3446.85	-12655.4
3447.34	-12655.4
3447.83	-12655.4
3448.33	-12655.4
3448.82	-12655.4
3449.31	-12655.4
3449.8	-12655.4
3450.3	-12655.4
3450.79	-12655.4
3451.28	-12685.7
3451.77	-49878.7
3452.26	-83776.2
3452.76	-87053.8
3453.25	-87053.8
3453.74	-87053.8
3454.23	-87053.8
3454.72	-87053.8
3455.22	-87053.8
3455.71	-87053.8
3456.2	-87053.8
3456.69	-87053.8
3457.19	-87053.8
3457.68	-87053.8
3458.17	-87053.8
3458.66	-87053.8
3459.15	-87053.8
3459.65	-87053.8
3460.14	-87053.8
3460.63	-87053.8
3461.12	-87053.8
3461.61	-87053.8
3462.11	-87053.8
3462.6	-87053.8
3463.09	-87053.8
3463.58	-87053.8
3464.08	-87053.8
3464.57	-87053.8
3465.06	-87053.8
3465.55	-87053.8
3466.04	-87053.9
3466.54	-87198.5
3467.03	-90730.5
3467.52	-119585
3468.01	-119585
3468.5	-119585
3469	-119585
3469.49	-119585
3469.98	-119585
3470.47	-119585
3470.96	-119585
3471.46	-119585
3471.95	-119585
3472.44	-119585
3472.93	-119585
3473.43	-119585
3473.92	-119585
3474.41	-119585
3474.9	-119585
3475.39	-119585
3475.89	-119585
3476.38	-119585
3476.87	-119585
3477.36	-119585
3477.85	-119585
3478.35	-119585
3478.84	-119585
3479.33	-119585
3479.82	-119585
3480.32	-119585
3480.81	-119585
3481.3	-119585
3481.79	-119585
3482.28	-119585
3482.78	-96191.8
3483.27	-77601.4
3483.76	-77387.3
3484.25	-77387.3
3484.74	-77387.3
3485.24	-77387.3
3485.73	-77387.3
3486.22	-77387.3
3486.71	-77387.3
3487.2	-77387.3
3487.7	-77387.3
3488.19	-77387.3
3488.68	-77387.3
3489.17	-77387.3
3489.67	-77387.3
3490.16	-77387.3
3490.65	-77387.3
3491.14	-77387.3
3491.63	-77387.3
3492.13	-77387.3
3492.62	-77387.3
3493.11	-77387.3
3493.6	-77387.3
3494.09	-77387.3
3494.59	-77387.3
3495.08	-77387.3
3495.57	-77387.3
3496.06	-77387.3
3496.56	-77387.3
3497.05	-77387.3
3497.54	-76447.6
3498.03	-60619.3
3498.52	12722.8
3499.02	12722.8
3499.51	12722.8
3500	12722.8
3500.49	12722.8
3500.98	12722.8
3501.48	12722.8
3501.97	12722.8
3502.46	12722.8
3502.95	12722.8
3503.45	12722.8
3503.94	12722.8
3504.43	12722.8
3504.92	12722.8
3505.41	12722.8
3505.91	12722.8
3506.4	12722.8
3506.89	12722.8
3507.38	12722.8
3507.87	12722.8
3508.37	12722.8
3508.86	12722.8
3509.35	12722.8
3509.84	12722.8
3510.33	12722.8
3510.83	12722.8
3511.32	12722.8
3511.81	12722.8
3512.3	12722.8
3512.8	12722.8
3513.29	12750.8
3513.78	47117.5
3514.27	94577.1
3514.76	111923
3515.26	111923
3515.75	111923
3516.24	111923
3516.73	111923
3517.22	111923
3517.72	111923
3518.21	111923
3518.7	111923
3519.19	111923
3519.69	111923
3520.18	111923
3520.67	111923
3521.16	111923
3521.65	111923
3522.15	111923
3522.64	111923
3523.13	111923
3523.62	111923
3524.11	111923
3524.61	111923
3525.1	111923
3525.59	111923
3526.08	111923
3526.57	111923
3527.07	111923
3527.56	111923
3528.05	111923
3528.54	111923
3529.04	111923
3529.53	114844
3530.02	163961
3530.51	164204
3531	164204
3531.5	164204
3531.99	164204
3532.48	164204
3532.97	164204
3533.46	164204
3533.96	164204
3534.45	164204
3534.94	164204
3535.43	164204
3535.93	164204
3536.42	164204
3536.91	164204
3537.4	164204
3537.89	164204
3538.39	164204
3538.88	164204
3539.37	164204
3539.86	164204
3540.35	164204
3540.85	164204
3541.34	164204
3541.83	164204
3542.32	164204
3542.82	164204
3543.31	164204
3543.8	164204
3544.29	164204
3544.78	164201
3545.28	160966
3545.77	145560
3546.26	134752
3546.75	134752
3547.24	134752
3547.74	134752
3548.23	134752
3548.72	134752
3549.21	134752
3549.71	134752
3550.2	134752
3550.69	134752
3551.18	134752
3551.67	134752
3552.17	134752
3552.66	134752
3553.15	134752
3553.64	134752
3554.13	134752
3554.63	134752
3555.12	134752
3555.61	134752
3556.1	134752
3556.59	134752
3557.09	134752
3557.58	134752
3558.07	134752
3558.56	134752
3559.06	134752
3559.55	134752
3560.04	134752
3560.53	134752
3561.02	133855
3561.52	114748
3562.01	75247.3
3562.5	75247.3
3562.99	75247.3
3563.48	75247.3
3563.98	75247.3
3564.47	75247.3
3564.96	75247.3
3565.45	75247.3
3565.95	75247.3
3566.44	75247.3
3566.93	75247.3
3567.42	75247.3
3567.91	75247.3
3568.41	75247.3
3568.9	75247.3
3569.39	75247.3
3569.88	75247.3
3570.37	75247.3
3570.87	75247.3
3571.36	75247.3
3571.85	75247.3
3572.34	75247.3
3572.83	75247.3
3573.33	75247.3
3573.82	75247.3
3574.31	75247.3
3574.8	75247.3
3575.3	75247.3
3575.79	75247.3
3576.28	75247.3
3576.77	69802.8
3577.26	60657.2
3577.76	56555.9
3578.25	56555.9
3578.74	56555.9
3579.23	56555.9
3579.72	56555.9
3580.22	56555.9
3580.71	56555.9
3581.2	56555.9
3581.69	56555.9
3582.19	56555.9
3582.68	56555.9
3583.17	56555.9
3583.66	56555.9
3584.15	56555.9
3584.65	56555.9
3585.14	56555.9
3585.63	56555.9
3586.12	56555.9
3586.61	56555.9
3587.11	56555.9
3587.6	56555.9
3588.09	56555.9
3588.58	56555.9
3589.07	56555.9
3589.57	56555.9
3590.06	56555.9
3590.55	56555.9
3591.04	56555.9
3591.54	56555.4
3592.03	55948.1
3592.52	45955.9
3593.01	44274.6
3593.5	44274.6
3594	44274.6
3594.49	44274.6
3594.98	44274.6
3595.47	44274.6
3595.96	44274.6
3596.46	44274.6
3596.95	44274.6
3597.44	44274.6
3597.93	44274.6
3598.43	44274.6
3598.92	44274.6
3599.41	44274.6
3599.9	44274.6
3600.39	44274.6
3600.89	44274.6
3601.38	44274.6
3601.87	44274.6
3602.36	44274.6
3602.85	44274.6
3603.35	44274.6
3603.84	44274.6
3604.33	44274.6
3604.82	44274.6
3605.32	44274.6
3605.81	44274.6
3606.3	44274.6
3606.79	44273.9
3607.28	43463
3607.78	-4241.29
3608.27	-41284.2
3608.76	-41284.2
3609.25	-41284.2
3609.74	-41284.2
3610.24	-41284.2
3610.73	-41284.2
3611.22	-41284.2
3611.71	-41284.2
3612.2	-41284.2
3612.7	-41284.2
3613.19	-41284.2
3613.68	-41284.2
3614.17	-41284.2
3614.67	-41284.2
3615.16	-41284.2
3615.65	-41284.2
3616.14	-41284.2
3616.63	-41284.2
3617.13	-41284.2
3617.62	-41284.2
3618.11	-41284.2
3618.6	-41284.2
3619.09	-41284.2
3619.59	-41284.2
3620.08	-41284.2
3620.57	-41284.2
3621.06	-41284.2
3621.56	-41288.8
3622.05	-46993.7
3622.54	-105189
3623.03	-156405
3623.52	-156405
3624.02	-156405
3624.51	-156405
3625	-156405
3625.49	-156405
3625.98	-156405
3626.48	-156405
3626.97	-156405
3627.46	-156405
3627.95	-156405
3628.45	-156405
3628.94	-156405
3629.43	-156405
3629.92	-156405
3630.41	-156405
3630.91	-156405
3631.4	-156405
3631.89	-156405
3632.38	-156405
3632.87	-156405
3633.37	-156405
3633.86	-156405
3634.35	-156405
3634.84	-156405
3635.33	-156405
3635.83	-156405
3636.32	-156407
3636.81	-158835
3637.3	-163677
3637.8	-165817
3638.29	-165817
3638.78	-165817
3639.27	-165817
3639.76	-165817
3640.26	-165817
3640.75	-165817
3641.24	-165817
3641.73	-165817
3642.22	-165817
3642.72	-165817
3643.21	-165817
3643.7	-165817
3644.19	-165817
3644.69	-165817
3645.18	-165817
3645.67	-165817
3646.16	-165817
3646.65	-165817
3647.15	-165817
3647.64	-165817
3648.13	-165817
3648.62	-165817
3649.11	-165817
3649.61	-165817
3650.1	-165817
3650.59	-165805
3651.08	-151353
3651.57	-75468.3
3652.07	-48497.8
3652.56	-48497.8
3653.05	-48497.8
3653.54	-48497.8
3654.04	-48497.8
3654.53	-48497.8
3655.02	-48497.8
3655.51	-48497.8
3656	-48497.8
3656.5	-48497.8
3656.99	-48497.8
3657.48	-48497.8
3657.97	-48497.8
3658.46	-48497.8
3658.96	-48497.8
3659.45	-48497.8
3659.94	-48497.8
3660.43	-48497.8
3660.93	-48497.8
3661.42	-48497.8
3661.91	-48497.8
3662.4	-48497.8
3662.89	-48497.8
3663.39	-48497.8
3663.88	-48497.8
3664.37	-48497.8
3664.86	-48497.8
3665.35	-48463.4
3665.85	-6224.68
3666.34	45421.1
3666.83	60825.4
3667.32	60825.4
3667.82	60825.4
3668.31	60825.4
3668.8	60825.4
3669.29	60825.4
3669.78	60825.4
3670.28	60825.4
3670.77	60825.4
3671.26	60825.4
3671.75	60825.4
3672.24	60825.4
3672.74	60825.4
3673.23	60825.4
3673.72	60825.4
3674.21	60825.4
3674.7	60825.4
3675.2	60825.4
3675.69	60825.4
3676.18	60825.4
3676.67	60825.4
3677.17	60825.4
3677.66	60825.4
3678.15	60825.4
3678.64	60825.4
3679.13	60825.4
3679.63	60825.4
3680.12	60367.8
3680.61	58338.5
3681.1	56295.2
3681.59	56295.2
3682.09	56295.2
3682.58	56295.2
3683.07	56295.2
3683.56	56295.2
3684.06	56295.2
3684.55	56295.2
3685.04	56295.2
3685.53	56295.2
3686.02	56295.2
3686.52	56295.2
3687.01	56295.2
3687.5	56295.2
3687.99	56295.2
3688.48	56295.2
3688.98	56295.2
3689.47	56295.2
3689.96	56295.2
3690.45	56295.2
3690.94	56295.2
3691.44	56295.2
3691.93	56295.2
3692.42	56295.2
3692.91	56295.2
3693.41	56295.2
3693.9	56295.2
3694.39	56295.2
3694.88	37734.9
3695.37	-7374.92
3695.87	-19878.4
3696.36	-19878.4
3696.85	-19878.4
3697.34	-19878.4
3697.83	-19878.4
3698.33	-19878.4
3698.82	-19878.4
3699.31	-19878.4
3699.8	-19878.4
3700.3	-19878.4
3700.79	-19878.4
3701.28	-19878.4
3701.77	-19878.4
3702.26	-19878.4
3702.76	-19878.4
3703.25	-19878.4
3703.74	-19878.4
3704.23	-19878.4
3704.72	-19878.4
3705.22	-19878.4
3705.71	-19878.4
3706.2	-19878.4
3706.69	-19878.4
3707.19	-19878.4
3707.68	-19878.4
3708.17	-19878.4
3708.66	-19878.4
3709.15	-27506.3
3709.65	-50055.9
3710.14	-63716.4
3710.63	-63716.4
3711.12	-63716.4
3711.61	-63716.4
3712.11	-63716.4
3712.6	-63716.4
3713.09	-63716.4
3713.58	-63716.4
3714.07	-63716.4
3714.57	-63716.4
3715.06	-63716.4
3715.55	-63716.4
3716.04	-63716.4
3716.54	-63716.4
3717.03	-63716.4
3717.52	-63716.4
3718.01	-63716.4
3718.5	-63716.4
3719	-63716.4
3719.49	-63716.4
3719.98	-63716.4
3720.47	-63716.4
3720.96	-63716.4
3721.46	-63716.4
3721.95	-63716.4
3722.44	-63716.4
3722.93	-63716.4
3723.43	-54727.5
3723.92	-37216.1
3724.41	-34327.1
3724.9	-34327.1
3725.39	-34327.1
3725.89	-34327.1
3726.38	-34327.1
3726.87	-34327.1
3727.36	-34327.1
3727.85	-34327.1
3728.35	-34327.1
3728.84	-34327.1
3729.33	-34327.1
3729.82	-34327.1
3730.31	-34327.1
3730.81	-34327.1
3731.3	-34327.1
3731.79	-34327.1
3732.28	-34327.1
3732.78	-34327.1
3733.27	-34327.1
3733.76	-34327.1
3734.25	-34327.1
3734.74	-34327.1
3735.24	-34327.1
3735.73	-34327.1
3736.22	-34327.1
3736.71	-34327.1
3737.21	-34311.5
3737.7	-15120.8
3738.19	18715.8
3738.68	26903.5
3739.17	26903.5
3739.67	26903.5
3740.16	26903.5
3740.65	26903.5
3741.14	26903.5
3741.63	26903.5
3742.13	26903.5
3742.62	26903.5
3743.11	26903.5
3743.6	26903.5
3744.09	26903.5
3744.59	26903.5
3745.08	26903.5
3745.57	26903.5
3746.06	26903.5
3746.56	26903.5
3747.05	26903.5
3747.54	26903.5
3748.03	26903.5
3748.52	26903.5
3749.02	26903.5
3749.51	26903.5
3750	26903.5
3750.49	26903.5
3750.98	26903.5
3751.48	26910.3
3751.97	35314.1
3752.46	53734.9
3752.95	54957.1
3753.45	54957.1
3753.94	54957.1
3754.43	54957.1
3754.92	54957.1
3755.41	54957.1
3755.91	54957.1
3756.4	54957.1
3756.89	54957.1
3757.38	54957.1
3757.87	54957.1
3758.37	54957.1
3758.86	54957.1
3759.35	54957.1
3759.84	54957.1
3760.33	54957.1
3760.83	54957.1
3761.32	54957.1
3761.81	54957.1
3762.3	54957.1
3762.8	54957.1
3763.29	54957.1
3763.78	54957.1
3764.27	54957.1
3764.76	54957.1
3765.26	54957.1
3765.75	54957.1
3766.24	51815.4
3766.73	39245.2
3767.22	28893.1
3767.72	28893.1
3768.21	28893.1
3768.7	28893.1
3769.19	28893.1
3769.69	28893.1
3770.18	28893.1
3770.67	28893.1
3771.16	28893.1
3771.65	28893.1
3772.15	28893.1
3772.64	28893.1
3773.13	28893.1
3773.62	28893.1
3774.11	28893.1
3774.61	28893.1
3775.1	28893.1
3775.59	28893.1
3776.08	28893.1
3776.58	28893.1
3777.07	28893.1
3777.56	28893.1
3778.05	28893.1
3778.54	28893.1
3779.04	28893.1
3779.53	28893.1
3780.02	28893.1
3780.51	28165.1
3781	-1003.92
3781.5	-8984.02
3781.99	-8984.02
3782.48	-8984.02
3782.97	-8984.02
3783.46	-8984.02
3783.96	-8984.02
3784.45	-8984.02
3784.94	-8984.02
3785.43	-8984.02
3785.93	-8984.02
3786.42	-8984.02
3786.91	-8984.02
3787.4	-8984.02
3787.89	-8984.02
3788.39	-8984.02
3788.88	-8984.02
3789.37	-8984.02
3789.86	-8984.02
3790.35	-8984.02
3790.85	-8984.02
3791.34	-8984.02
3791.83	-8984.02
3792.32	-8984.02
3792.82	-8984.02
3793.31	-8984.02
3793.8	-8984.02
3794.29	-8984.02
3794.78	-8984.02
3795.28	-11252.3
3795.77	-13080.8
3796.26	-13123.3
3796.75	-13123.3
3797.24	-13123.3
3797.74	-13123.3
3798.23	-13123.3
3798.72	-13123.3
3799.21	-13123.3
3799.7	-13123.3
3800.2	-13123.3
3800.69	-13123.3
3801.18	-13123.3
3801.67	-13123.3
3802.17	-13123.3
3802.66	-13123.3
3803.15	-13123.3
3803.64	-13123.3
3804.13	-13123.3
3804.63	-13123.3
3805.12	-13123.3
3805.61	-13123.3
3806.1	-13123.3
3806.59	-13123.3
3807.09	-13123.3
3807.58	-13123.3
3808.07	-13123.3
3808.56	-13122.5
3809.06	-12135.6
3809.55	-3672.54
3810.04	2551.29
3810.53	2551.29
3811.02	2551.29
3811.52	2551.29
3812.01	2551.29
3812.5	2551.29
3812.99	2551.29
3813.48	2551.29
3813.98	2551.29
3814.47	2551.29
3814.96	2551.29
3815.45	2551.29
3815.95	2551.29
3816.44	2551.29
3816.93	2551.29
3817.42	2551.29
3817.91	2551.29
3818.41	2551.29
3818.9	2551.29
3819.39	2551.29
3819.88	2551.29
3820.37	2551.29
3820.87	2551.29
3821.36	2551.29
3821.85	2551.29
3822.34	2551.29
3822.83	2551.29
3823.33	2549.72
3823.82	619.683
3824.31	-1363.34
3824.8	-1907.09
3825.3	-1907.09
3825.79	-1907.09
3826.28	-1907.09
3826.77	-1907.09
3827.26	-1907.09
3827.76	-1907.09
3828.25	-1907.09
3828.74	-1907.09
3829.23	-1907.09
3829.72	-1907.09
3830.22	-1907.09
3830.71	-1907.09
3831.2	-1907.09
3831.69	-1907.09
3832.19	-1907.09
3832.68	-1907.09
3833.17	-1907.09
3833.66	-1907.09
3834.15	-1907.09
3834.65	-1907.09
3835.14	-1907.09
3835.63	-1907.09
3836.12	-1907.09
3836.61	-1907.09
3837.11	-1907.09
3837.6	-2338.38
3838.09	-7416.76
3838.58	-22251.7
3839.07	-22251.7
3839.57	-22251.7
3840.06	-22251.7
3840.55	-22251.7
3841.04	-22251.7
3841.54	-22251.7
3842.03	-22251.7
3842.52	-22251.7
3843.01	-22251.7
3843.5	-22251.7
3844	-22251.7
3844.49	-22251.7
3844.98	-22251.7
3845.47	-22251.7
3845.96	-22251.7
3846.46	-22251.7
3846.95	-22251.7
3847.44	-22251.7
3847.93	-22251.7
3848.43	-22251.7
3848.92	-22251.7
3849.41	-22251.7
3849.9	-22251.7
3850.39	-22251.7
3850.89	-22251.7
3851.38	-22251.7
3851.87	-22251.7
3852.36	-22298
3852.85	-22393.1
3853.35	-22423.5
3853.84	-22423.5
3854.33	-22423.5
3854.82	-22423.5
3855.32	-22423.5
3855.81	-22423.5
3856.3	-22423.5
3856.79	-22423.5
3857.28	-22423.5
3857.78	-22423.5
3858.27	-22423.5
3858.76	-22423.5
3859.25	-22423.5
3859.74	-22423.5
3860.24	-22423.5
3860.73	-22423.5
3861.22	-22423.5
3861.71	-22423.5
3862.21	-22423.5
3862.7	-22423.5
3863.19	-22423.5
3863.68	-22423.5
3864.17	-22423.5
3864.67	-22423.5
3865.16	-22423.5
3865.65	-22423.5
3866.14	-22423.5
3866.63	-15507.6
3867.13	4067.91
3867.62	7305.41
3868.11	7305.41
3868.6	7305.41
3869.09	7305.41
3869.59	7305.41
3870.08	7305.41
3870.57	7305.41
3871.06	7305.41
3871.56	7305.41
3872.05	7305.41
3872.54	7305.41
3873.03	7305.41
3873.52	7305.41
3874.02	7305.41
3874.51	7305.41
3875	7305.41
3875.49	7305.41
3875.98	7305.41
3876.48	7305.41
3876.97	7305.41
3877.46	7305.41
3877.95	7305.41
3878.45	7305.41
3878.94	7305.41
3879.43	7305.41
3879.92	7305.41
3880.41	7305.41
3880.91	13050.4
3881.4	40881.6
3881.89	47204.9
3882.38	47204.9
3882.87	47204.9
3883.37	47204.9
3883.86	47204.9
3884.35	47204.9
3884.84	47204.9
3885.33	47204.9
3885.83	47204.9
3886.32	47204.9
3886.81	47204.9
3887.3	47204.9
3887.8	47204.9
3888.29	47204.9
3888.78	47204.9
3889.27	47204.9
3889.76	47204.9
3890.26	47204.9
3890.75	47204.9
3891.24	47204.9
3891.73	47204.9
3892.22	47204.9
3892.72	47204.9
3893.21	47204.9
3893.7	47204.9
3894.19	47204.9
3894.69	47208
3895.18	51011
3895.67	64855.2
3896.16	78337.8
3896.65	78337.8
3897.15	78337.8
3897.64	78337.8
3898.13	78337.8
3898.62	78337.8
3899.11	78337.8
3899.61	78337.8
3900.1	78337.8
3900.59	78337.8
3901.08	78337.8
3901.57	78337.8
3902.07	78337.8
3902.56	78337.8
3903.05	78337.8
3903.54	78337.8
3904.04	78337.8
3904.53	78337.8
3905.02	78337.8
3905.51	78337.8
3906	78337.8
3906.5	78337.8
3906.99	78337.8
3907.48	78337.8
3907.97	78337.8
3908.46	78337.8
3908.96	78337.8
3909.45	78342.9
3909.94	84592.8
3910.43	88914.3
3910.93	89403.4
3911.42	89403.4
3911.91	89403.4
3912.4	89403.4
3912.89	89403.4
3913.39	89403.4
3913.88	89403.4
3914.37	89403.4
3914.86	89403.4
3915.35	89403.4
3915.85	89403.4
3916.34	89403.4
3916.83	89403.4
3917.32	89403.4
3917.82	89403.4
3918.31	89403.4
3918.8	89403.4
3919.29	89403.4
3919.78	89403.4
3920.28	89403.4
3920.77	89403.4
3921.26	89403.4
3921.75	89403.4
3922.24	89403.4
3922.74	89403.4
3923.23	89403.4
3923.72	89020.4
3924.21	82914.4
3924.7	75531.1
3925.2	75531.1
3925.69	75531.1
3926.18	75531.1
3926.67	75531.1
3927.17	75531.1
3927.66	75531.1
3928.15	75531.1
3928.64	75531.1
3929.13	75531.1
3929.63	75531.1
3930.12	75531.1
3930.61	75531.1
3931.1	75531.1
3931.59	75531.1
3932.09	75531.1
3932.58	75531.1
3933.07	75531.1
3933.56	75531.1
3934.06	75531.1
3934.55	75531.1
3935.04	75531.1
3935.53	75531.1
3936.02	75531.1
3936.52	75531.1
3937.01	75531.1
3937.5	75531.1
3937.99	75531.1
3938.48	63669
3938.98	34187.4
3939.47	33227.4
3939.96	33227.4
3940.45	33227.4
3940.95	33227.4
3941.44	33227.4
3941.93	33227.4
3942.42	33227.4
3942.91	33227.4
3943.41	33227.4
3943.9	33227.4
3944.39	33227.4
3944.88	33227.4
3945.37	33227.4
3945.87	33227.4
3946.36	33227.4
3946.85	33227.4
3947.34	33227.4
3947.83	33227.4
3948.33	33227.4
3948.82	33227.4
3949.31	33227.4
3949.8	33227.4
3950.3	33227.4
3950.79	33227.4
3951.28	33227.4
3951.77	33227.4
3952.26	15159.1
3952.76	-25751.6
3953.25	-49095.6
3953.74	-49095.6
3954.23	-49095.6
3954.72	-49095.6
3955.22	-49095.6
3955.71	-49095.6
3956.2	-49095.6
3956.69	-49095.6
3957.19	-49095.6
3957.68	-49095.6
3958.17	-49095.6
3958.66	-49095.6
3959.15	-49095.6
3959.65	-49095.6
3960.14	-49095.6
3960.63	-49095.6
3961.12	-49095.6
3961.61	-49095.6
3962.11	-49095.6
3962.6	-49095.6
3963.09	-49095.6
3963.58	-49095.6
3964.07	-49095.6
3964.57	-49095.6
3965.06	-49095.6
3965.55	-49102.1
3966.04	-57163.1
3966.54	-139991
3967.03	-148980
3967.52	-148980
3968.01	-148980
3968.5	-148980
3969	-148980
3969.49	-148980
3969.98	-148980
3970.47	-148980
3970.96	-148980
3971.46	-148980
3971.95	-148980
3972.44	-148980
3972.93	-148980
3973.43	-148980
3973.92	-148980
3974.41	-148980
3974.9	-148980
3975.39	-148980
3975.89	-148980
3976.38	-148980
3976.87	-148980
3977.36	-148980
3977.85	-148980
3978.35	-148980
3978.84	-148980
3979.33	-148980
3979.82	-158016
3980.32	-164762
3980.81	-165885
3981.3	-165885
3981.79	-165885
3982.28	-165885
3982.78	-165885
3983.27	-165885
3983.76	-165885
3984.25	-165885
3984.74	-165885
3985.24	-165885
3985.73	-165885
3986.22	-165885
3986.71	-165885
3987.2	-165885
3987.7	-165885
3988.19	-165885
3988.68	-165885
3989.17	-165885
3989.67	-165885
3990.16	-165885
3990.65	-165885
3991.14	-165885
3991.63	-165885
3992.13	-165885
3992.62	-165255
3993.11	-135326
3993.6	-38844
3994.09	-38844
3994.59	-38844
3995.08	-38844
3995.57	-38844
3996.06	-38844
3996.56	-38844
3997.05	-38844
3997.54	-38844
3998.03	-38844
3998.52	-38844
3999.02	-38844
3999.51	-38844
4000	-38844
4000.49	-38844
4000.98	-38844
4001.48	-38844
4001.97	-38844
4002.46	-38844
4002.95	-38844
4003.44	-38844
4003.94	-38844
4004.43	-38844
4004.92	-38844
4005.41	-38844
4005.91	-38844
4006.4	7673.61
4006.89	76154
4007.38	91188.2
4007.87	91188.2
4008.37	91188.2
4008.86	91188.2
4009.35	91188.2
4009.84	91188.2
4010.33	91188.2
4010.83	91188.2
4011.32	91188.2
4011.81	91188.2
4012.3	91188.2
4012.8	91188.2
4013.29	91188.2
4013.78	91188.2
4014.27	91188.2
4014.76	91188.2
4015.26	91188.2
4015.75	91188.2
4016.24	91188.2
4016.73	91188.2
4017.22	91188.2
4017.72	91188.2
4018.21	91188.2
4018.7	91188.2
4019.19	91188.2
4019.69	91179.4
4020.18	80286.7
4020.67	49617.7
4021.16	27930
4021.65	27930
4022.15	27930
4022.64	27930
4023.13	27930
4023.62	27930
4024.11	27930
4024.61	27930
4025.1	27930
4025.59	27930
4026.08	27930
4026.57	27930
4027.07	27930
4027.56	27930
4028.05	27930
4028.54	27930
4029.04	27930
4029.53	27930
4030.02	27930
4030.51	27930
4031	27930
4031.5	27930
4031.99	27930
4032.48	27930
4032.97	27930
4033.46	27930
4033.96	-88311.6
4034.45	-145408
4034.94	-150040
4035.43	-150040
4035.93	-150040
4036.42	-150040
4036.91	-150040
4037.4	-150040
4037.89	-150040
4038.39	-150040
4038.88	-150040
4039.37	-150040
4039.86	-150040
4040.35	-150040
4040.85	-150040
4041.34	-150040
4041.83	-150040
4042.32	-150040
4042.81	-150040
4043.31	-150040
4043.8	-150040
4044.29	-150040
4044.78	-150040
4045.28	-150040
4045.77	-150040
4046.26	-150040
4046.75	-152921
4047.24	-157264
4047.74	-158899
4048.23	-158899
4048.72	-158899
4049.21	-158899
4049.71	-158899
4050.2	-158899
4050.69	-158899
4051.18	-158899
4051.67	-158899
4052.17	-158899
4052.66	-158899
4053.15	-158899
4053.64	-158899
4054.13	-158899
4054.63	-158899
4055.12	-158899
4055.61	-158899
4056.1	-158899
4056.59	-158899
4057.09	-158899
4057.58	-158899
4058.07	-158899
4058.56	-158899
4059.06	-158890
4059.55	-148023
4060.04	-40193.2
4060.53	43904
4061.02	43904
4061.52	43904
4062.01	43904
4062.5	43904
4062.99	43904
4063.48	43904
4063.98	43904
4064.47	43904
4064.96	43904
4065.45	43904
4065.95	43904
4066.44	43904
4066.93	43904
4067.42	43904
4067.91	43904
4068.41	43904
4068.9	43904
4069.39	43904
4069.88	43904
4070.37	43904
4070.87	43904
4071.36	43904
4071.85	43904
4072.34	43904
4072.83	54632.6
4073.33	142542
4073.82	184482
4074.31	184482
4074.8	184482
4075.3	184482
4075.79	184482
4076.28	184482
4076.77	184482
4077.26	184482
4077.76	184482
4078.25	184482
4078.74	184482
4079.23	184482
4079.72	184482
4080.22	184482
4080.71	184482
4081.2	184482
4081.69	184482
4082.19	184482
4082.68	184482
4083.17	184482
4083.66	184482
4084.15	184482
4084.65	184482
4085.14	184482
4085.63	184482
4086.12	184474
4086.61	174067
4087.11	135341
4087.6	118900
4088.09	118900
4088.58	118900
4089.08	118900
4089.57	118900
4090.06	118900
4090.55	118900
4091.04	118900
4091.54	118900
4092.03	118900
4092.52	118900
4093.01	118900
4093.5	118900
4094	118900
4094.49	118900
4094.98	118900
4095.47	118900
4095.96	118900
4096.46	118900
4096.95	118900
4097.44	118900
4097.93	118900
4098.43	118900
4098.92	118900
4099.41	118900
4099.9	115377
4100.39	43803.7
4100.89	26090.8
4101.38	26090.8
4101.87	26090.8
4102.36	26090.8
4102.85	26090.8
4103.35	26090.8
4103.84	26090.8
4104.33	26090.8
4104.82	26090.8
4105.31	26090.8
4105.81	26090.8
4106.3	26090.8
4106.79	26090.8
4107.28	26090.8
4107.78	26090.8
4108.27	26090.8
4108.76	26090.8
4109.25	26090.8
4109.74	26090.8
4110.24	26090.8
4110.73	26090.8
4111.22	26090.8
4111.71	26090.8
4112.21	26090.8
4112.7	26090.8
4113.19	31382.6
4113.68	45580.7
4114.17	55393.8
4114.67	55393.8
4115.16	55393.8
4115.65	55393.8
4116.14	55393.8
4116.63	55393.8
4117.13	55393.8
4117.62	55393.8
4118.11	55393.8
4118.6	55393.8
4119.09	55393.8
4119.59	55393.8
4120.08	55393.8
4120.57	55393.8
4121.06	55393.8
4121.56	55393.8
4122.05	55393.8
4122.54	55393.8
4123.03	55393.8
4123.52	55393.8
4124.02	55393.8
4124.51	55393.8
4125	55393.8
4125.49	55393.8
4125.98	55419.5
4126.48	87032.3
4126.97	107461
4127.46	108439
4127.95	108439
4128.45	108439
4128.94	108439
4129.43	108439
4129.92	108439
4130.41	108439
4130.91	108439
4131.4	108439
4131.89	108439
4132.38	108439
4132.87	108439
4133.37	108439
4133.86	108439
4134.35	108439
4134.84	108439
4135.33	108439
4135.83	108439
4136.32	108439
4136.81	108439
4137.3	108439
4137.8	108439
4138.29	108439
4138.78	108439
4139.27	108439
4139.76	97204.6
4140.26	83276.1
4140.75	79406.1
4141.24	79406.1
4141.73	79406.1
4142.22	79406.1
4142.72	79406.1
4143.21	79406.1
4143.7	79406.1
4144.19	79406.1
4144.69	79406.1
4145.18	79406.1
4145.67	79406.1
4146.16	79406.1
4146.65	79406.1
4147.15	79406.1
4147.64	79406.1
4148.13	79406.1
4148.62	79406.1
4149.11	79406.1
4149.61	79406.1
4150.1	79406.1
4150.59	79406.1
4151.08	79406.1
4151.57	79406.1
4152.07	79406.1
4152.56	77458
4153.05	58270
4153.54	15215.3
4154.04	15215.3
4154.53	15215.3
4155.02	15215.3
4155.51	15215.3
4156	15215.3
4156.5	15215.3
4156.99	15215.3
4157.48	15215.3
4157.97	15215.3
4158.46	15215.3
4158.96	15215.3
4159.45	15215.3
4159.94	15215.3
4160.43	15215.3
4160.93	15215.3
4161.42	15215.3
4161.91	15215.3
4162.4	15215.3
4162.89	15215.3
4163.39	15215.3
4163.88	15215.3
4164.37	15215.3
4164.86	15215.3
4165.35	15185.6
4165.85	-21285.1
4166.34	-41495.9
4166.83	-43711.2
4167.32	-43711.2
4167.82	-43711.2
4168.31	-43711.2
4168.8	-43711.2
4169.29	-43711.2
4169.78	-43711.2
4170.28	-43711.2
4170.77	-43711.2
4171.26	-43711.2
4171.75	-43711.2
4172.24	-43711.2
4172.74	-43711.2
4173.23	-43711.2
4173.72	-43711.2
4174.21	-43711.2
4174.71	-43711.2
4175.2	-43711.2
4175.69	-43711.2
4176.18	-43711.2
4176.67	-43711.2
4177.17	-43711.2
4177.66	-43711.4
4178.15	-43958.8
4178.64	-66676.7
4179.13	-121432
4179.63	-121432
4180.12	-121432
4180.61	-121432
4181.1	-121432
4181.59	-121432
4182.09	-121432
4182.58	-121432
4183.07	-121432
4183.56	-121432
4184.06	-121432
4184.55	-121432
4185.04	-121432
4185.53	-121432
4186.02	-121432
4186.52	-121432
4187.01	-121432
4187.5	-121432
4187.99	-121432
4188.48	-121432
4188.98	-121432
4189.47	-121432
4189.96	-121432
4190.45	-121432
4190.94	-121432
4191.44	-144642
4191.93	-176154
4192.42	-180339
4192.91	-180339
4193.41	-180339
4193.9	-180339
4194.39	-180339
4194.88	-180339
4195.37	-180339
4195.87	-180339
4196.36	-180339
4196.85	-180339
4197.34	-180339
4197.83	-180339
4198.33	-180339
4198.82	-180339
4199.31	-180339
4199.8	-180339
4200.3	-180339
4200.79	-180339
4201.28	-180339
4201.77	-180339
4202.26	-180339
4202.76	-180339
4203.25	-180339
4203.74	-173219
4204.23	-164429
4204.72	-162952
4205.22	-162952
4205.71	-162952
4206.2	-162952
4206.69	-162952
4207.19	-162952
4207.68	-162952
4208.17	-162952
4208.66	-162952
4209.15	-162952
4209.65	-162952
4210.14	-162952
4210.63	-162952
4211.12	-162952
4211.61	-162952
4212.11	-162952
4212.6	-162952
4213.09	-162952
4213.58	-162952
4214.08	-162952
4214.57	-162952
4215.06	-162952
4215.55	-162952
4216.04	-158733
4216.54	-115148
4217.03	-112185
4217.52	-112185
4218.01	-112185
4218.5	-112185
4219	-112185
4219.49	-112185
4219.98	-112185
4220.47	-112185
4220.96	-112185
4221.46	-112185
4221.95	-112185
4222.44	-112185
4222.93	-112185
4223.43	-112185
4223.92	-112185
4224.41	-112185
4224.9	-112185
4225.39	-112185
4225.89	-112185
4226.38	-112185
4226.87	-112185
4227.36	-112185
4227.85	-112185
4228.35	-112185
4228.84	-85530.8
4229.33	-64011.8
4229.82	-59410.3
4230.31	-59410.3
4230.81	-59410.3
4231.3	-59410.3
4231.79	-59410.3
4232.28	-59410.3
4232.78	-59410.3
4233.27	-59410.3
4233.76	-59410.3
4234.25	-59410.3
4234.74	-59410.3
4235.24	-59410.3
4235.73	-59410.3
4236.22	-59410.3
4236.71	-59410.3
4237.2	-59410.3
4237.7	-59410.3
4238.19	-59410.3
4238.68	-59410.3
4239.17	-59410.3
4239.67	-59410.3
4240.16	-59410.3
4240.65	-59410.3
4241.14	-59391.6
4241.63	-36408.9
4242.13	34699.8
4242.62	63504.4
4243.11	63504.4
4243.6	63504.4
4244.09	63504.4
4244.59	63504.4
4245.08	63504.4
4245.57	63504.4
4246.06	63504.4
4246.56	63504.4
4247.05	63504.4
4247.54	63504.4
4248.03	63504.4
4248.52	63504.4
4249.02	63504.4
4249.51	63504.4
4250	63504.4
4250.49	63504.4
4250.98	63504.4
4251.48	63504.4
4251.97	63504.4
4252.46	63504.4
4252.95	63504.4
4253.45	63504.4
4253.94	63547.3
4254.43	116176
4254.92	208106
4255.41	222283
4255.91	222283
4256.4	222283
4256.89	222283
4257.38	222283
4257.87	222283
4258.37	222283
4258.86	222283
4259.35	222283
4259.84	222283
4260.33	222283
4260.83	222283
4261.32	222283
4261.81	222283
4262.3	222283
4262.8	222283
4263.29	222283
4263.78	222283
4264.27	222283
4264.76	222283
4265.26	222283
4265.75	222283
4266.24	222283
4266.73	222283
4267.22	222283
4267.72	223470
4268.21	225990
4268.7	227356
4269.19	227356
4269.69	227356
4270.18	227356
4270.67	227356
4271.16	227356
4271.65	227356
4272.15	227356
4272.64	227356
4273.13	227356
4273.62	227356
4274.11	227356
4274.61	227356
4275.1	227356
4275.59	227356
4276.08	227356
4276.57	227356
4277.07	227356
4277.56	227356
4278.05	227356
4278.54	227356
4279.04	227356
4279.53	227356
4280.02	227356
4280.51	227356
4281	227208
4281.5	212134
4281.99	64987.3
4282.48	63780.2
4282.97	63780.2
4283.46	63780.2
4283.96	63780.2
4284.45	63780.2
4284.94	63780.2
4285.43	63780.2
4285.93	63780.2
4286.42	63780.2
4286.91	63780.2
4287.4	63780.2
4287.89	63780.2
4288.39	63780.2
4288.88	63780.2
4289.37	63780.2
4289.86	63780.2
4290.35	63780.2
4290.85	63780.2
4291.34	63780.2
4291.83	63780.2
4292.32	63780.2
4292.82	63780.2
4293.31	63780.2
4293.8	63780.2
4294.29	54705.8
4294.78	1936.22
4295.28	-32300.1
4295.77	-32300.1
4296.26	-32300.1
4296.75	-32300.1
4297.24	-32300.1
4297.74	-32300.1
4298.23	-32300.1
4298.72	-32300.1
4299.21	-32300.1
4299.71	-32300.1
4300.2	-32300.1
4300.69	-32300.1
4301.18	-32300.1
4301.67	-32300.1
4302.17	-32300.1
4302.66	-32300.1
4303.15	-32300.1
4303.64	-32300.1
4304.13	-32300.1
4304.63	-32300.1
4305.12	-32300.1
4305.61	-32300.1
4306.1	-32300.1
4306.59	-32300.1
4307.09	-31503.7
4307.58	-22188.2
4308.07	7006.27
4308.56	7006.27
4309.06	7006.27
4309.55	7006.27
4310.04	7006.27
4310.53	7006.27
4311.02	7006.27
4311.52	7006.27
4312.01	7006.27
4312.5	7006.27
4312.99	7006.27
4313.48	7006.27
4313.98	7006.27
4314.47	7006.27
4314.96	7006.27
4315.45	7006.27
4315.94	7006.27
4316.44	7006.27
4316.93	7006.27
4317.42	7006.27
4317.91	7006.27
4318.41	7006.27
4318.9	7006.27
4319.39	7006.27
4319.88	7006.27
4320.37	6986.69
4320.87	-17061
4321.36	-26944.9
4321.85	-27547.8
4322.34	-27547.8
4322.83	-27547.8
4323.33	-27547.8
4323.82	-27547.8
4324.31	-27547.8
4324.8	-27547.8
4325.3	-27547.8
4325.79	-27547.8
4326.28	-27547.8
4326.77	-27547.8
4327.26	-27547.8
4327.76	-27547.8
4328.25	-27547.8
4328.74	-27547.8
4329.23	-27547.8
4329.72	-27547.8
4330.22	-27547.8
4330.71	-27547.8
4331.2	-27547.8
4331.69	-27547.8
4332.19	-27547.8
4332.68	-27547.8
4333.17	-27547.8
4333.66	-35660.9
4334.15	-83846.1
4334.65	-153286
4335.14	-153286
4335.63	-153286
4336.12	-153286
4336.61	-153286
4337.11	-153286
4337.6	-153286
4338.09	-153286
4338.58	-153286
4339.08	-153286
4339.57	-153286
4340.06	-153286
4340.55	-153286
4341.04	-153286
4341.54	-153286
4342.03	-153286
4342.52	-153286
4343.01	-153286
4343.5	-153286
4344	-153286
4344.49	-153286
4344.98	-153286
4345.47	-153286
4345.96	-153286
4346.46	-153286
4346.95	-142831
4347.44	-99736.1
4347.93	-94885.8
4348.43	-94885.8
4348.92	-94885.8
4349.41	-94885.8
4349.9	-94885.8
4350.39	-94885.8
4350.89	-94885.8
4351.38	-94885.8
4351.87	-94885.8
4352.36	-94885.8
4352.85	-94885.8
4353.35	-94885.8
4353.84	-94885.8
4354.33	-94885.8
4354.82	-94885.8
4355.31	-94885.8
4355.81	-94885.8
4356.3	-94885.8
4356.79	-94885.8
4357.28	-94885.8
4357.78	-94885.8
4358.27	-94885.8
4358.76	-94885.8
4359.25	-94861.1
4359.74	-64411.9
4360.24	57808.1
4360.73	156749
4361.22	156749
4361.71	156749
4362.21	156749
4362.7	156749
4363.19	156749
4363.68	156749
4364.17	156749
4364.67	156749
4365.16	156749
4365.65	156749
4366.14	156749
4366.63	156749
4367.13	156749
4367.62	156749
4368.11	156749
4368.6	156749
4369.09	156749
4369.59	156749
4370.08	156749
4370.57	156749
4371.06	156749
4371.56	156749
4372.05	156749
4372.54	156749
4373.03	156749
4373.52	156981
4374.02	163345
4374.51	214663
4375	214663
4375.49	214663
4375.98	214663
4376.48	214663
4376.97	214663
4377.46	214663
4377.95	214663
4378.45	214663
4378.94	214663
4379.43	214663
4379.92	214663
4380.41	214663
4380.91	214663
4381.4	214663
4381.89	214663
4382.38	214663
4382.87	214663
4383.37	214663
4383.86	214663
4384.35	214663
4384.84	214663
4385.33	214663
4385.83	214663
4386.32	214663
4386.81	214663
4387.3	214663
4387.8	214663
4388.29	104470
4388.78	-14461
4389.27	-45130.4
4389.76	-45130.4
4390.26	-45130.4
4390.75	-45130.4
4391.24	-45130.4
4391.73	-45130.4
4392.22	-45130.4
4392.72	-45130.4
4393.21	-45130.4
4393.7	-45130.4
4394.19	-45130.4
4394.69	-45130.4
4395.18	-45130.4
4395.67	-45130.4
4396.16	-45130.4
4396.65	-45130.4
4397.15	-45130.4
4397.64	-45130.4
4398.13	-45130.4
4398.62	-45130.4
4399.11	-45130.4
4399.61	-45130.4
4400.1	-45130.4
4400.59	-45130.4
4401.08	-45149.1
4401.58	-68234.8
4402.07	-201213
4402.56	-237752
4403.05	-237752
4403.54	-237752
4404.04	-237752
4404.53	-237752
4405.02	-237752
4405.51	-237752
4406	-237752
4406.5	-237752
4406.99	-237752
4407.48	-237752
4407.97	-237752
4408.46	-237752
4408.96	-237752
4409.45	-237752
4409.94	-237752
4410.43	-237752
4410.93	-237752
4411.42	-237752
4411.91	-237752
4412.4	-237752
4412.89	-237752
4413.39	-237752
4413.88	-237752
4414.37	-237752
4414.86	-208717
4415.35	-150832
4415.85	-132372
4416.34	-132372
4416.83	-132372
4417.32	-132372
4417.81	-132372
4418.31	-132372
4418.8	-132372
4419.29	-132372
4419.78	-132372
4420.28	-132372
4420.77	-132372
4421.26	-132372
4421.75	-132372
4422.24	-132372
4422.74	-132372
4423.23	-132372
4423.72	-132372
4424.21	-132372
4424.71	-132372
4425.2	-132372
4425.69	-132372
4426.18	-132372
4426.67	-132372
4427.17	-132372
4427.66	-132372
4428.15	-132346
4428.64	-100914
4429.13	-20328.2
4429.63	-11323.8
4430.12	-11323.8
4430.61	-11323.8
4431.1	-11323.8
4431.59	-11323.8
4432.09	-11323.8
4432.58	-11323.8
4433.07	-11323.8
4433.56	-11323.8
4434.06	-11323.8
4434.55	-11323.8
4435.04	-11323.8
4435.53	-11323.8
4436.02	-11323.8
4436.52	-11323.8
4437.01	-11323.8
4437.5	-11323.8
4437.99	-11323.8
4438.48	-11323.8
4438.98	-11323.8
4439.47	-11323.8
4439.96	-11323.8
4440.45	-11323.8
4440.95	-11323.8
4441.44	-11323.8
4441.93	-11323.8
4442.42	-35012.6
4442.91	-84485.5
4443.41	-93107.9
4443.9	-93107.9
4444.39	-93107.9
4444.88	-93107.9
4445.37	-93107.9
4445.87	-93107.9
4446.36	-93107.9
4446.85	-93107.9
4447.34	-93107.9
4447.83	-93107.9
4448.33	-93107.9
4448.82	-93107.9
4449.31	-93107.9
4449.8	-93107.9
4450.3	-93107.9
4450.79	-93107.9
4451.28	-93107.9
4451.77	-93107.9
4452.26	-93107.9
4452.76	-93107.9
4453.25	-93107.9
4453.74	-93107.9
4454.23	-93107.9
4454.72	-93107.9
4455.22	-93108.5
4455.71	-93837.2
4456.2	-113233
4456.69	-139998
4457.19	-139998
4457.68	-139998
4458.17	-139998
4458.66	-139998
4459.15	-139998
4459.65	-139998
4460.14	-139998
4460.63	-139998
4461.12	-139998
4461.61	-139998
4462.11	-139998
4462.6	-139998
4463.09	-139998
4463.58	-139998
4464.07	-139998
4464.57	-139998
4465.06	-139998
4465.55	-139998
4466.04	-139998
4466.54	-139998
4467.03	-139998
4467.52	-139998
4468.01	-139998
4468.5	-139998
4469	-139998
4469.49	-139998
4469.98	14280.3
4470.47	43970.3
4470.96	45048.4
4471.46	45048.4
4471.95	45048.4
4472.44	45048.4
4472.93	45048.4
4473.43	45048.4
4473.92	45048.4
4474.41	45048.4
4474.9	45048.4
4475.39	45048.4
4475.89	45048.4
4476.38	45048.4
4476.87	45048.4
4477.36	45048.4
4477.85	45048.4
4478.35	45048.4
4478.84	45048.4
4479.33	45048.4
4479.82	45048.4
4480.32	45048.4
4480.81	45048.4
4481.3	45048.4
4481.79	45048.4
4482.28	45048.4
4482.78	45048.4
4483.27	45048.4
4483.76	111726
4484.25	199031
4484.74	225383
4485.24	225383
4485.73	225383
4486.22	225383
4486.71	225383
4487.21	225383
4487.7	225383
4488.19	225383
4488.68	225383
4489.17	225383
4489.67	225383
4490.16	225383
4490.65	225383
4491.14	225383
4491.63	225383
4492.13	225383
4492.62	225383
4493.11	225383
4493.6	225383
4494.09	225383
4494.59	225383
4495.08	225383
4495.57	225383
4496.06	225383
4496.56	225383
4497.05	225382
4497.54	223866
4498.03	204249
4498.52	167885
4499.02	167885
4499.51	167885
4500	167885
4500.49	167885
4500.98	167885
4501.48	167885
4501.97	167885
4502.46	167885
4502.95	167885
4503.44	167885
4503.94	167885
4504.43	167885
4504.92	167885
4505.41	167885
4505.91	167885
4506.4	167885
4506.89	167885
4507.38	167885
4507.87	167885
4508.37	167885
4508.86	167885
4509.35	167885
4509.84	167885
4510.33	167885
4510.83	167885
4511.32	167885
4511.81	167827
4512.3	97100.1
4512.8	49748.9
4513.29	47463.8
4513.78	47463.8
4514.27	47463.8
4514.76	47463.8
4515.26	47463.8
4515.75	47463.8
4516.24	47463.8
4516.73	47463.8
4517.22	47463.8
4517.72	47463.8
4518.21	47463.8
4518.7	47463.8
4519.19	47463.8
4519.69	47463.8
4520.18	47463.8
4520.67	47463.8
4521.16	47463.8
4521.65	47463.8
4522.15	47463.8
4522.64	47463.8
4523.13	47463.8
4523.62	47463.8
4524.11	47463.8
4524.61	47463.8
4525.1	47463.8
4525.59	50798.1
4526.08	69668
4526.58	89772.3
4527.07	89772.3
4527.56	89772.3
4528.05	89772.3
4528.54	89772.3
4529.04	89772.3
4529.53	89772.3
4530.02	89772.3
4530.51	89772.3
4531	89772.3
4531.5	89772.3
4531.99	89772.3
4532.48	89772.3
4532.97	89772.3
4533.46	89772.3
4533.96	89772.3
4534.45	89772.3
4534.94	89772.3
4535.43	89772.3
4535.93	89772.3
4536.42	89772.3
4536.91	89772.3
4537.4	89772.3
4537.89	89772.3
4538.39	89772.3
4538.88	89777.3
4539.37	95975
4539.86	151946
4540.35	171297
4540.85	171297
4541.34	171297
4541.83	171297
4542.32	171297
4542.81	171297
4543.31	171297
4543.8	171297
4544.29	171297
4544.78	171297
4545.28	171297
4545.77	171297
4546.26	171297
4546.75	171297
4547.24	171297
4547.74	171297
4548.23	171297
4548.72	171297
4549.21	171297
4549.7	171297
4550.2	171297
4550.69	171297
4551.18	171297
4551.67	171297
4552.17	171297
4552.66	171297
4553.15	164048
4553.64	129871
4554.13	86481.9
4554.63	86481.9
4555.12	86481.9
4555.61	86481.9
4556.1	86481.9
4556.59	86481.9
4557.09	86481.9
4557.58	86481.9
4558.07	86481.9
4558.56	86481.9
4559.06	86481.9
4559.55	86481.9
4560.04	86481.9
4560.53	86481.9
4561.02	86481.9
4561.52	86481.9
4562.01	86481.9
4562.5	86481.9
4562.99	86481.9
4563.48	86481.9
4563.98	86481.9
4564.47	86481.9
4564.96	86481.9
4565.45	86481.9
4565.95	86481.9
4566.44	86426.5
4566.93	18342.2
4567.42	-69179
4567.91	-82236.1
4568.41	-82236.1
4568.9	-82236.1
4569.39	-82236.1
4569.88	-82236.1
4570.37	-82236.1
4570.87	-82236.1
4571.36	-82236.1
4571.85	-82236.1
4572.34	-82236.1
4572.83	-82236.1
4573.33	-82236.1
4573.82	-82236.1
4574.31	-82236.1
4574.8	-82236.1
4575.3	-82236.1
4575.79	-82236.1
4576.28	-82236.1
4576.77	-82236.1
4577.26	-82236.1
4577.76	-82236.1
4578.25	-82236.1
4578.74	-82236.1
4579.23	-82236.1
4579.72	-99287.6
4580.22	-131734
4580.71	-147175
4581.2	-147175
4581.69	-147175
4582.19	-147175
4582.68	-147175
4583.17	-147175
4583.66	-147175
4584.15	-147175
4584.65	-147175
4585.14	-147175
4585.63	-147175
4586.12	-147175
4586.61	-147175
4587.11	-147175
4587.6	-147175
4588.09	-147175
4588.58	-147175
4589.07	-147175
4589.57	-147175
4590.06	-147175
4590.55	-147175
4591.04	-147175
4591.54	-147175
4592.03	-147108
4592.52	-145404
4593.01	-131747
4593.5	-131747
4594	-131747
4594.49	-131747
4594.98	-131747
4595.47	-131747
4595.96	-131747
4596.46	-131747
4596.95	-131747
4597.44	-131747
4597.93	-131747
4598.43	-131747
4598.92	-131747
4599.41	-131747
4599.9	-131747
4600.39	-131747
4600.89	-131747
4601.38	-131747
4601.87	-131747
4602.36	-131747
4602.85	-131747
4603.35	-131747
4603.84	-131747
4604.33	-131747
4604.82	-131747
4605.32	-143714
4605.81	-151043
4606.3	-151413
4606.79	-151413
4607.28	-151413
4607.78	-151413
4608.27	-151413
4608.76	-151413
4609.25	-151413
4609.74	-151413
4610.24	-151413
4610.73	-151413
4611.22	-151413
4611.71	-151413
4612.21	-151413
4612.7	-151413
4613.19	-151413
4613.68	-151413
4614.17	-151413
4614.67	-151413
4615.16	-151413
4615.65	-151413
4616.14	-151413
4616.63	-151413
4617.13	-152188
4617.62	-158070
4618.11	-169490
4618.6	-169490
4619.09	-169490
4619.59	-169490
4620.08	-169490
4620.57	-169490
4621.06	-169490
4621.56	-169490
4622.05	-169490
4622.54	-169490
4623.03	-169490
4623.52	-169490
4624.02	-169490
4624.51	-169490
4625	-169490
4625.49	-169490
4625.98	-169490
4626.48	-169490
4626.97	-169490
4627.46	-169490
4627.95	-169490
4628.44	-169490
4628.94	-169490
4629.43	-169490
4629.92	-136916
4630.41	-103610
4630.91	-98329.2
4631.4	-98329.2
4631.89	-98329.2
4632.38	-98329.2
4632.87	-98329.2
4633.37	-98329.2
4633.86	-98329.2
4634.35	-98329.2
4634.84	-98329.2
4635.33	-98329.2
4635.83	-98329.2
4636.32	-98329.2
4636.81	-98329.2
4637.3	-98329.2
4637.8	-98329.2
4638.29	-98329.2
4638.78	-98329.2
4639.27	-98329.2
4639.76	-98329.2
4640.26	-98329.2
4640.75	-98329.2
4641.24	-98329.2
4641.73	-98329.2
4642.22	-56538
4642.72	-1904.91
4643.21	4401.95
4643.7	4401.95
4644.19	4401.95
4644.69	4401.95
4645.18	4401.95
4645.67	4401.95
4646.16	4401.95
4646.65	4401.95
4647.15	4401.95
4647.64	4401.95
4648.13	4401.95
4648.62	4401.95
4649.11	4401.95
4649.61	4401.95
4650.1	4401.95
4650.59	4401.95
4651.08	4401.95
4651.58	4401.95
4652.07	4401.95
4652.56	4401.95
4653.05	4401.95
4653.54	4401.95
4654.04	4524.46
4654.53	7971.16
4655.02	39082.9
4655.51	39082.9
4656	39082.9
4656.5	39082.9
4656.99	39082.9
4657.48	39082.9
4657.97	39082.9
4658.46	39082.9
4658.96	39082.9
4659.45	39082.9
4659.94	39082.9
4660.43	39082.9
4660.93	39082.9
4661.42	39082.9
4661.91	39082.9
4662.4	39082.9
4662.89	39082.9
4663.39	39082.9
4663.88	39082.9
4664.37	39082.9
4664.86	39082.9
4665.35	39082.9
4665.85	39082.9
4666.34	39082.9
4666.83	39086.4
4667.32	43437.3
4667.81	46038
4668.31	46221.9
4668.8	46221.9
4669.29	46221.9
4669.78	46221.9
4670.28	46221.9
4670.77	46221.9
4671.26	46221.9
4671.75	46221.9
4672.24	46221.9
4672.74	46221.9
4673.23	46221.9
4673.72	46221.9
4674.21	46221.9
4674.71	46221.9
4675.2	46221.9
4675.69	46221.9
4676.18	46221.9
4676.67	46221.9
4677.17	46221.9
4677.66	46221.9
4678.15	46221.9
4678.64	46221.9
4679.13	46234.5
4679.63	61691.1
4680.12	107527
4680.61	110994
4681.1	110994
4681.59	110994
4682.09	110994
4682.58	110994
4683.07	110994
4683.56	110994
4684.06	110994
4684.55	110994
4685.04	110994
4685.53	110994
4686.02	110994
4686.52	110994
4687.01	110994
4687.5	110994
4687.99	110994
4688.48	110994
4688.98	110994
4689.47	110994
4689.96	110994
4690.45	110994
4690.95	110994
4691.44	111009
4691.93	128994
4692.42	175971
4692.91	183397
4693.41	183397
4693.9	183397
4694.39	183397
4694.88	183397
4695.37	183397
4695.87	183397
4696.36	183397
4696.85	183397
4697.34	183397
4697.83	183397
4698.33	183397
4698.82	183397
4699.31	183397
4699.8	183397
4700.3	183397
4700.79	183397
4701.28	183397
4701.77	183397
4702.26	183397
4702.76	183397
4703.25	183397
4703.74	183397
4704.23	183395
4704.72	181199
4705.22	169099
4705.71	157046
4706.2	157046
4706.69	157046
4707.19	157046
4707.68	157046
4708.17	157046
4708.66	157046
4709.15	157046
4709.65	157046
4710.14	157046
4710.63	157046
4711.12	157046
4711.61	157046
4712.11	157046
4712.6	157046
4713.09	157046
4713.58	157046
4714.08	157046
4714.57	157046
4715.06	157046
4715.55	157046
4716.04	157046
4716.54	157044
4717.03	155070
4717.52	119181
4718.01	54165.5
4718.5	54165.5
4719	54165.5
4719.49	54165.5
4719.98	54165.5
4720.47	54165.5
4720.96	54165.5
4721.46	54165.5
4721.95	54165.5
4722.44	54165.5
4722.93	54165.5
4723.43	54165.5
4723.92	54165.5
4724.41	54165.5
4724.9	54165.5
4725.39	54165.5
4725.89	54165.5
4726.38	54165.5
4726.87	54165.5
4727.36	54165.5
4727.85	54165.5
4728.35	54165.5
4728.84	54165.5
4729.33	54165.5
4729.82	32731.2
4730.31	-3479.71
4730.81	-17498.9
4731.3	-17498.9
4731.79	-17498.9
4732.28	-17498.9
4732.78	-17498.9
4733.27	-17498.9
4733.76	-17498.9
4734.25	-17498.9
4734.74	-17498.9
4735.24	-17498.9
4735.73	-17498.9
4736.22	-17498.9
4736.71	-17498.9
4737.21	-17498.9
4737.7	-17498.9
4738.19	-17498.9
4738.68	-17498.9
4739.17	-17498.9
4739.67	-17498.9
4740.16	-17498.9
4740.65	-17498.9
4741.14	-17498.9
4741.63	-17498.9
4742.13	-21901.8
4742.62	-35101.2
4743.11	-36443.5
4743.6	-36443.5
4744.09	-36443.5
4744.59	-36443.5
4745.08	-36443.5
4745.57	-36443.5
4746.06	-36443.5
4746.56	-36443.5
4747.05	-36443.5
4747.54	-36443.5
4748.03	-36443.5
4748.52	-36443.5
4749.02	-36443.5
4749.51	-36443.5
4750	-36443.5
4750.49	-36443.5
4750.98	-36443.5
4751.48	-36443.5
4751.97	-36443.5
4752.46	-36443.5
4752.95	-36443.5
4753.45	-36443.5
4753.94	-36443.5
4754.43	-43021.4
4754.92	-56781.5
4755.41	-58934.6
4755.91	-58934.6
4756.4	-58934.6
4756.89	-58934.6
4757.38	-58934.6
4757.87	-58934.6
4758.37	-58934.6
4758.86	-58934.6
4759.35	-58934.6
4759.84	-58934.6
4760.33	-58934.6
4760.83	-58934.6
4761.32	-58934.6
4761.81	-58934.6
4762.3	-58934.6
4762.8	-58934.6
4763.29	-58934.6
4763.78	-58934.6
4764.27	-58934.6
4764.76	-58934.6
4765.26	-58934.6
4765.75	-58936.3
4766.24	-61016.2
4766.73	-73709.1
4767.22	-85474.1
4767.72	-85474.1
4768.21	-85474.1
4768.7	-85474.1
4769.19	-85474.1
4769.69	-85474.1
4770.18	-85474.1
4770.67	-85474.1
4771.16	-85474.1
4771.65	-85474.1
4772.15	-85474.1
4772.64	-85474.1
4773.13	-85474.1
4773.62	-85474.1
4774.11	-85474.1
4774.61	-85474.1
4775.1	-85474.1
4775.59	-85474.1
4776.08	-85474.1
4776.57	-85474.1
4777.07	-85474.1
4777.56	-85474.1
4778.05	-85473.1
4778.54	-84262.8
4779.04	-71605.1
4779.53	-70381.5
4780.02	-70381.5
4780.51	-70381.5
4781	-70381.5
4781.5	-70381.5
4781.99	-70381.5
4782.48	-70381.5
4782.97	-70381.5
4783.46	-70381.5
4783.96	-70381.5
4784.45	-70381.5
4784.94	-70381.5
4785.43	-70381.5
4785.93	-70381.5
4786.42	-70381.5
4786.91	-70381.5
4787.4	-70381.5
4787.89	-70381.5
4788.39	-70381.5
4788.88	-70381.5
4789.37	-70381.5
4789.86	-70381.5
4790.35	-70370.8
4790.85	-57226.4
4791.34	-39736.8
4791.83	-34318.2
4792.32	-34318.2
4792.82	-34318.2
4793.31	-34318.2
4793.8	-34318.2
4794.29	-34318.2
4794.78	-34318.2
4795.28	-34318.2
4795.77	-34318.2
4796.26	-34318.2
4796.75	-34318.2
4797.24	-34318.2
4797.74	-34318.2
4798.23	-34318.2
4798.72	-34318.2
4799.21	-34318.2
4799.71	-34318.2
4800.2	-34318.2
4800.69	-34318.2
4801.18	-34318.2
4801.67	-34318.2
4802.17	-34318.3
4802.66	-34438.6
4803.15	-36206.6
4803.64	-39671.4
4804.13	-39671.4
4804.63	-39671.4
4805.12	-39671.4
4805.61	-39671.4
4806.1	-39671.4
4806.59	-39671.4
4807.09	-39671.4
4807.58	-39671.4
4808.07	-39671.4
4808.56	-39671.4
4809.06	-39671.4
4809.55	-39671.4
4810.04	-39671.4
4810.53	-39671.4
4811.02	-39671.4
4811.52	-39671.4
4812.01	-39671.4
4812.5	-39671.4
4812.99	-39671.4
4813.48	-39671.4
4813.98	-39671.4
4814.47	-39671.4
4814.96	-39689.5
4815.45	-61935
4815.94	-67954.7
4816.44	-68389
4816.93	-68389
4817.42	-68389
4817.91	-68389
4818.41	-68389
4818.9	-68389
4819.39	-68389
4819.88	-68389
4820.37	-68389
4820.87	-68389
4821.36	-68389
4821.85	-68389
4822.34	-68389
4822.83	-68389
4823.33	-68389
4823.82	-68389
4824.31	-68389
4824.8	-68389
4825.3	-68389
4825.79	-68389
4826.28	-68389
4826.77	-68382.9
4827.26	-60878.1
4827.76	-46905.7
4828.25	-39995.2
4828.74	-39995.2
4829.23	-39995.2
4829.72	-39995.2
4830.22	-39995.2
4830.71	-39995.2
4831.2	-39995.2
4831.69	-39995.2
4832.19	-39995.2
4832.68	-39995.2
4833.17	-39995.2
4833.66	-39995.2
4834.15	-39995.2
4834.65	-39995.2
4835.14	-39995.2
4835.63	-39995.2
4836.12	-39995.2
4836.61	-39995.2
4837.11	-39995.2
4837.6	-39995.2
4838.09	-39995.2
4838.58	-39995.2
4839.08	-37298.6
4839.57	-12348.9
4840.06	50791.5
4840.55	50791.5
4841.04	50791.5
4841.54	50791.5
4842.03	50791.5
4842.52	50791.5
4843.01	50791.5
4843.5	50791.5
4844	50791.5
4844.49	50791.5
4844.98	50791.5
4845.47	50791.5
4845.96	50791.5
4846.46	50791.5
4846.95	50791.5
4847.44	50791.5
4847.93	50791.5
4848.43	50791.5
4848.92	50791.5
4849.41	50791.5
4849.9	50791.5
4850.39	50791.5
4850.89	50791.5
4851.38	50816.6
4851.87	81655.8
4852.36	108884
4852.85	115017
4853.35	115017
4853.84	115017
4854.33	115017
4854.82	115017
4855.31	115017
4855.81	115017
4856.3	115017
4856.79	115017
4857.28	115017
4857.78	115017
4858.27	115017
4858.76	115017
4859.25	115017
4859.74	115017
4860.24	115017
4860.73	115017
4861.22	115017
4861.71	115017
4862.2	115017
4862.7	115017
4863.19	115017
4863.68	115013
4864.17	110444
4864.67	100016
4865.16	95981.7
4865.65	95981.7
4866.14	95981.7
4866.63	95981.7
4867.13	95981.7
4867.62	95981.7
4868.11	95981.7
4868.6	95981.7
4869.09	95981.7
4869.59	95981.7
4870.08	95981.7
4870.57	95981.7
4871.06	95981.7
4871.56	95981.7
4872.05	95981.7
4872.54	95981.7
4873.03	95981.7
4873.52	95981.7
4874.02	95981.7
4874.51	95981.7
4875	95981.7
4875.49	95981.7
4875.98	95979
4876.48	92604.4
4876.97	36805.1
4877.46	34042.1
4877.95	34042.1
4878.45	34042.1
4878.94	34042.1
4879.43	34042.1
4879.92	34042.1
4880.41	34042.1
4880.91	34042.1
4881.4	34042.1
4881.89	34042.1
4882.38	34042.1
4882.87	34042.1
4883.37	34042.1
4883.86	34042.1
4884.35	34042.1
4884.84	34042.1
4885.33	34042.1
4885.83	34042.1
4886.32	34042.1
4886.81	34042.1
4887.3	34042.1
4887.8	34042.1
4888.29	34032
4888.78	21668.1
4889.27	1378.26
4889.76	-7493.57
4890.26	-7493.57
4890.75	-7493.57
4891.24	-7493.57
4891.73	-7493.57
4892.22	-7493.57
4892.72	-7493.57
4893.21	-7493.57
4893.7	-7493.57
4894.19	-7493.57
4894.69	-7493.57
4895.18	-7493.57
4895.67	-7493.57
4896.16	-7493.57
4896.65	-7493.57
4897.15	-7493.57
4897.64	-7493.57
4898.13	-7493.57
4898.62	-7493.57
4899.11	-7493.57
4899.61	-7493.57
4900.1	-7493.57
4900.59	-8474.82
4901.08	-13693.4
4901.57	-18166.3
4902.07	-18166.3
4902.56	-18166.3
4903.05	-18166.3
4903.54	-18166.3
4904.04	-18166.3
4904.53	-18166.3
4905.02	-18166.3
4905.51	-18166.3
4906	-18166.3
4906.5	-18166.3
4906.99	-18166.3
4907.48	-18166.3
4907.97	-18166.3
4908.46	-18166.3
4908.96	-18166.3
4909.45	-18166.3
4909.94	-18166.3
4910.43	-18166.3
4910.93	-18166.3
4911.42	-18166.3
4911.91	-18166.3
4912.4	-18166.3
4912.89	-19374.2
4913.39	-22367.1
4913.88	-23107.2
4914.37	-23107.2
4914.86	-23107.2
4915.35	-23107.2
4915.85	-23107.2
4916.34	-23107.2
4916.83	-23107.2
4917.32	-23107.2
4917.82	-23107.2
4918.31	-23107.2
4918.8	-23107.2
4919.29	-23107.2
4919.78	-23107.2
4920.28	-23107.2
4920.77	-23107.2
4921.26	-23107.2
4921.75	-23107.2
4922.24	-23107.2
4922.74	-23107.2
4923.23	-23107.2
4923.72	-23107.2
4924.21	-23107.2
4924.71	-24299.9
4925.2	-28428.3
4925.69	-32103
4926.18	-32103
4926.67	-32103
4927.17	-32103
4927.66	-32103
4928.15	-32103
4928.64	-32103
4929.13	-32103
4929.63	-32103
4930.12	-32103
4930.61	-32103
4931.1	-32103
4931.59	-32103
4932.09	-32103
4932.58	-32103
4933.07	-32103
4933.56	-32103
4934.06	-32103
4934.55	-32103
4935.04	-32103
4935.53	-32103
4936.02	-32103
4936.52	-32100.7
4937.01	-32030.2
4937.5	-31918
4937.99	-31918
4938.48	-31918
4938.98	-31918
4939.47	-31918
4939.96	-31918
4940.45	-31918
4940.94	-31918
4941.44	-31918
4941.93	-31918
4942.42	-31918
4942.91	-31918
4943.41	-31918
4943.9	-31918
4944.39	-31918
4944.88	-31918
4945.37	-31918
4945.87	-31918
4946.36	-31918
4946.85	-31918
4947.34	-31918
4947.83	-31918
4948.33	-31918
4948.82	-28724.2
4949.31	-19858.8
4949.8	-15712.2
4950.3	-15712.2
4950.79	-15712.2
4951.28	-15712.2
4951.77	-15712.2
4952.26	-15712.2
4952.76	-15712.2
4953.25	-15712.2
4953.74	-15712.2
4954.23	-15712.2
4954.72	-15712.2
4955.22	-15712.2
4955.71	-15712.2
4956.2	-15712.2
4956.69	-15712.2
4957.19	-15712.2
4957.68	-15712.2
4958.17	-15712.2
4958.66	-15712.2
4959.15	-15712.2
4959.65	-15712.2
4960.14	-15710.6
4960.63	-13803.5
4961.12	-5817.99
4961.61	2240.46
4962.11	2240.46
4962.6	2240.46
4963.09	2240.46
4963.58	2240.46
4964.08	2240.46
4964.57	2240.46
4965.06	2240.46
4965.55	2240.46
4966.04	2240.46
4966.54	2240.46
4967.03	2240.46
4967.52	2240.46
4968.01	2240.46
4968.5	2240.46
4969	2240.46
4969.49	2240.46
4969.98	2240.46
4970.47	2240.46
4970.96	2240.46
4971.46	2240.46
4971.95	2240.46
4972.44	2241.25
4972.93	3213.18
4973.43	7207.3
4973.92	7814.57
4974.41	7814.57
4974.9	7814.57
4975.39	7814.57
4975.89	7814.57
4976.38	7814.57
4976.87	7814.57
4977.36	7814.57
4977.85	7814.57
4978.35	7814.57
4978.84	7814.57
4979.33	7814.57
4979.82	7814.57
4980.31	7814.57
4980.81	7814.57
4981.3	7814.57
4981.79	7814.57
4982.28	7814.57
4982.78	7814.57
4983.27	7814.57
4983.76	7814.57
4984.25	7814.52
4984.74	7746.69
4985.24	6673.25
4985.73	5585.08
4986.22	5585.08
4986.71	5585.08
4987.21	5585.08
4987.7	5585.08
4988.19	5585.08
4988.68	5585.08
4989.17	5585.08
4989.67	5585.08
4990.16	5585.08
4990.65	5585.08
4991.14	5585.08
4991.63	5585.08
4992.13	5585.08
4992.62	5585.08
4993.11	5585.08
4993.6	5585.08
4994.09	5585.08
4994.59	5585.08
4995.08	5585.08
4995.57	5585.08
4996.06	5585.08
4996.56	5584.73
4997.05	5152.8
4997.54	1102.33
4998.03	498.36
4998.52	498.36
4999.02	498.36
4999.51	498.36
5000	498.36
5000.49	498.36
5000.98	498.36
5001.48	498.36
5001.97	498.36
5002.46	498.36
5002.95	498.36
5003.45	498.36
5003.94	498.36
5004.43	498.36
5004.92	498.36
5005.41	498.36
5005.91	498.36
5006.4	498.36
5006.89	498.36
5007.38	498.36
5007.87	498.36
5008.37	498.36
5008.86	491.516
5009.35	-7918.14
5009.84	-14379.3
5010.33	-15721.6
5010.83	-15721.6
5011.32	-15721.6
5011.81	-15721.6
5012.3	-15721.6
5012.8	-15721.6
5013.29	-15721.6
5013.78	-15721.6
5014.27	-15721.6
5014.76	-15721.6
5015.26	-15721.6
5015.75	-15721.6
5016.24	-15721.6
5016.73	-15721.6
5017.22	-15721.6
5017.72	-15721.6
5018.21	-15721.6
5018.7	-15721.6
5019.19	-15721.6
5019.69	-15721.6
5020.18	-15721.6
5020.67	-15721.6
5021.16	-19426.9
5021.65	-29462.8
5022.15	-34937.3
5022.64	-34937.3
5023.13	-34937.3
5023.62	-34937.3
5024.11	-34937.3
5024.61	-34937.3
5025.1	-34937.3
5025.59	-34937.3
5026.08	-34937.3
5026.58	-34937.3
5027.07	-34937.3
5027.56	-34937.3
5028.05	-34937.3
5028.54	-34937.3
5029.04	-34937.3
5029.53	-34937.3
5030.02	-34937.3
5030.51	-34937.3
5031	-34937.3
5031.5	-34937.3
5031.99	-34937.3
5032.48	-34937.3
5032.97	-34937.3
5033.46	-29565.4
5033.96	-23677.2
5034.45	-23247.3
5034.94	-23247.3
5035.43	-23247.3
5035.93	-23247.3
5036.42	-23247.3
5036.91	-23247.3
5037.4	-23247.3
5037.89	-23247.3
5038.39	-23247.3
5038.88	-23247.3
5039.37	-23247.3
5039.86	-23247.3
5040.35	-23247.3
5040.85	-23247.3
5041.34	-23247.3
5041.83	-23247.3
5042.32	-23247.3
5042.81	-23247.3
5043.31	-23247.3
5043.8	-23247.3
5044.29	-23247.3
5044.78	-23247.3
5045.28	-12246.2
5045.77	11707.3
5046.26	24521.6
5046.75	24521.6
5047.24	24521.6
5047.74	24521.6
5048.23	24521.6
5048.72	24521.6
5049.21	24521.6
5049.71	24521.6
5050.2	24521.6
5050.69	24521.6
5051.18	24521.6
5051.67	24521.6
5052.17	24521.6
5052.66	24521.6
5053.15	24521.6
5053.64	24521.6
5054.13	24521.6
5054.63	24521.6
5055.12	24521.6
5055.61	24521.6
5056.1	24521.6
5056.59	24521.6
5057.09	24521.6
5057.58	30327.8
5058.07	61328.7
5058.56	64762
5059.06	64762
5059.55	64762
5060.04	64762
5060.53	64762
5061.02	64762
5061.52	64762
5062.01	64762
5062.5	64762
5062.99	64762
5063.48	64762
5063.98	64762
5064.47	64762
5064.96	64762
5065.45	64762
5065.95	64762
5066.44	64762
5066.93	64762
5067.42	64762
5067.91	64762
5068.41	64762
5068.9	64762
5069.39	64762
5069.88	68048.8
5070.37	72292.3
5070.87	73332.3
5071.36	73332.3
5071.85	73332.3
5072.34	73332.3
5072.83	73332.3
5073.33	73332.3
5073.82	73332.3
5074.31	73332.3
5074.8	73332.3
5075.3	73332.3
5075.79	73332.3
5076.28	73332.3
5076.77	73332.3
5077.26	73332.3
5077.76	73332.3
5078.25	73332.3
5078.74	73332.3
5079.23	73332.3
5079.72	73332.3
5080.22	73332.3
5080.71	73332.3
5081.2	73332.3
5081.69	73332.3
5082.19	72639.9
5082.68	71196.1
5083.17	70675.2
5083.66	70675.2
5084.15	70675.2
5084.65	70675.2
5085.14	70675.2
5085.63	70675.2
5086.12	70675.2
5086.61	70675.2
5087.11	70675.2
5087.6	70675.2
5088.09	70675.2
5088.58	70675.2
5089.07	70675.2
5089.57	70675.2
5090.06	70675.2
5090.55	70675.2
5091.04	70675.2
5091.54	70675.2
5092.03	70675.2
5092.52	70675.2
5093.01	70675.2
5093.5	70675.2
5094	70675.2
5094.49	69270.7
5094.98	50117.4
5095.47	49655.3
5095.96	49655.3
5096.46	49655.3
5096.95	49655.3
5097.44	49655.3
5097.93	49655.3
5098.43	49655.3
5098.92	49655.3
5099.41	49655.3
5099.9	49655.3
5100.39	49655.3
5100.89	49655.3
5101.38	49655.3
5101.87	49655.3
5102.36	49655.3
5102.85	49655.3
5103.35	49655.3
5103.84	49655.3
5104.33	49655.3
5104.82	49655.3
5105.32	49655.3
5105.81	49655.3
5106.3	49655.3
5106.79	23158.3
5107.28	-12694.9
5107.78	-25641.5
5108.27	-25641.5
5108.76	-25641.5
5109.25	-25641.5
5109.74	-25641.5
5110.24	-25641.5
5110.73	-25641.5
5111.22	-25641.5
5111.71	-25641.5
5112.21	-25641.5
5112.7	-25641.5
5113.19	-25641.5
5113.68	-25641.5
5114.17	-25641.5
5114.67	-25641.5
5115.16	-25641.5
5115.65	-25641.5
5116.14	-25641.5
5116.63	-25641.5
5117.13	-25641.5
5117.62	-25641.5
5118.11	-25646.1
5118.6	-31340.7
5119.09	-64968.9
5119.59	-115322
5120.08	-115322
5120.57	-115322
5121.06	-115322
5121.56	-115322
5122.05	-115322
5122.54	-115322
5123.03	-115322
5123.52	-115322
5124.02	-115322
5124.51	-115322
5125	-115322
5125.49	-115322
5125.98	-115322
5126.48	-115322
5126.97	-115322
5127.46	-115322
5127.95	-115322
5128.44	-115322
5128.94	-115322
5129.43	-115322
5129.92	-115322
5130.41	-115324
5130.91	-118101
5131.4	-122788
5131.89	-123762
5132.38	-123762
5132.87	-123762
5133.37	-123762
5133.86	-123762
5134.35	-123762
5134.84	-123762
5135.33	-123762
5135.83	-123762
5136.32	-123762
5136.81	-123762
5137.3	-123762
5137.8	-123762
5138.29	-123762
5138.78	-123762
5139.27	-123762
5139.76	-123762
5140.26	-123762
5140.75	-123762
5141.24	-123762
5141.73	-123762
5142.22	-123749
5142.72	-107495
5143.21	-76391.7
5143.7	-62085.1
5144.19	-62085.1
5144.69	-62085.1
5145.18	-62085.1
5145.67	-62085.1
5146.16	-62085.1
5146.65	-62085.1
5147.15	-62085.1
5147.64	-62085.1
5148.13	-62085.1
5148.62	-62085.1
5149.11	-62085.1
5149.61	-62085.1
5150.1	-62085.1
5150.59	-62085.1
5151.08	-62085.1
5151.58	-62085.1
5152.07	-62085.1
5152.56	-62085.1
5153.05	-62085.1
5153.54	-62085.1
5154.04	-62084.3
5154.53	-61106.1
5155.02	-44876
5155.51	-39040.5
5156	-39040.5
5156.5	-39040.5
5156.99	-39040.5
5157.48	-39040.5
5157.97	-39040.5
5158.46	-39040.5
5158.96	-39040.5
5159.45	-39040.5
5159.94	-39040.5
5160.43	-39040.5
5160.93	-39040.5
5161.42	-39040.5
5161.91	-39040.5
5162.4	-39040.5
5162.89	-39040.5
5163.39	-39040.5
5163.88	-39040.5
5164.37	-39040.5
5164.86	-39040.5
5165.35	-39040.5
5165.85	-39040.5
5166.34	-39043.5
5166.83	-42694.6
5167.32	-52687.5
5167.81	-56985.2
5168.31	-56985.2
5168.8	-56985.2
5169.29	-56985.2
5169.78	-56985.2
5170.28	-56985.2
5170.77	-56985.2
5171.26	-56985.2
5171.75	-56985.2
5172.24	-56985.2
5172.74	-56985.2
5173.23	-56985.2
5173.72	-56985.2
5174.21	-56985.2
5174.71	-56985.2
5175.2	-56985.2
5175.69	-56985.2
5176.18	-56985.2
5176.67	-56985.2
5177.17	-56985.2
5177.66	-56985.2
5178.15	-56985.2
5178.64	-50552.5
5179.13	-26638.3
5179.63	-5134.38
5180.12	-5134.38
5180.61	-5134.38
5181.1	-5134.38
5181.59	-5134.38
5182.09	-5134.38
5182.58	-5134.38
5183.07	-5134.38
5183.56	-5134.38
5184.06	-5134.38
5184.55	-5134.38
5185.04	-5134.38
5185.53	-5134.38
5186.02	-5134.38
5186.52	-5134.38
5187.01	-5134.38
5187.5	-5134.38
5187.99	-5134.38
5188.48	-5134.38
5188.98	-5134.38
5189.47	-5134.38
5189.96	-5134.38
5190.45	-5134.38
5190.95	11806.3
5191.44	97494.2
5191.93	108019
5192.42	108019
5192.91	108019
5193.41	108019
5193.9	108019
5194.39	108019
5194.88	108019
5195.37	108019
5195.87	108019
5196.36	108019
5196.85	108019
5197.34	108019
5197.83	108019
5198.33	108019
5198.82	108019
5199.31	108019
5199.8	108019
5200.3	108019
5200.79	108019
5201.28	108019
5201.77	108019
5202.26	108019
5202.76	108019
5203.25	116522
5203.74	131713
5204.23	138894
5204.72	138894
5205.22	138894
5205.71	138894
5206.2	138894
5206.69	138894
5207.19	138894
5207.68	138894
5208.17	138894
5208.66	138894
5209.15	138894
5209.65	138894
5210.14	138894
5210.63	138894
5211.12	138894
5211.61	138894
5212.11	138894
5212.6	138894
5213.09	138894
5213.58	138894
5214.08	138894
5214.57	138894
5215.06	138894
5215.55	134148
5216.04	91727.2
5216.54	72017.2
5217.03	72017.2
5217.52	72017.2
5218.01	72017.2
5218.5	72017.2
5219	72017.2
5219.49	72017.2
5219.98	72017.2
5220.47	72017.2
5220.96	72017.2
5221.46	72017.2
5221.95	72017.2
5222.44	72017.2
5222.93	72017.2
5223.43	72017.2
5223.92	72017.2
5224.41	72017.2
5224.9	72017.2
5225.39	72017.2
5225.89	72017.2
5226.38	72017.2
5226.87	72017.2
5227.36	72017.2
5227.85	68764
5228.35	56443.8
5228.84	51809.2
5229.33	51809.2
5229.82	51809.2
5230.32	51809.2
5230.81	51809.2
5231.3	51809.2
5231.79	51809.2
5232.28	51809.2
5232.78	51809.2
5233.27	51809.2
5233.76	51809.2
5234.25	51809.2
5234.74	51809.2
5235.24	51809.2
5235.73	51809.2
5236.22	51809.2
5236.71	51809.2
5237.21	51809.2
5237.7	51809.2
5238.19	51809.2
5238.68	51809.2
5239.17	51809.2
5239.67	52252.6
5240.16	66835.4
5240.65	95810.4
5241.14	95810.4
5241.63	95810.4
5242.13	95810.4
5242.62	95810.4
5243.11	95810.4
5243.6	95810.4
5244.09	95810.4
5244.59	95810.4
5245.08	95810.4
5245.57	95810.4
5246.06	95810.4
5246.56	95810.4
5247.05	95810.4
5247.54	95810.4
5248.03	95810.4
5248.52	95810.4
5249.02	95810.4
5249.51	95810.4
5250	95810.4
5250.49	95810.4
5250.98	95810.4
5251.48	95810.4
5251.97	95810.4
5252.46	71376.6
5252.95	48730.2
5253.45	46911.3
5253.94	46911.3
5254.43	46911.3
5254.92	46911.3
5255.41	46911.3
5255.91	46911.3
5256.4	46911.3
5256.89	46911.3
5257.38	46911.3
5257.87	46911.3
5258.37	46911.3
5258.86	46911.3
5259.35	46911.3
5259.84	46911.3
5260.33	46911.3
5260.83	46911.3
5261.32	46911.3
5261.81	46911.3
5262.3	46911.3
5262.8	46911.3
5263.29	46911.3
5263.78	46911.3
5264.27	15631.5
5264.76	-64784.3
5265.26	-112352
5265.75	-112352
5266.24	-112352
5266.73	-112352
5267.22	-112352
5267.72	-112352
5268.21	-112352
5268.7	-112352
5269.19	-112352
5269.69	-112352
5270.18	-112352
5270.67	-112352
5271.16	-112352
5271.65	-112352
5272.15	-112352
5272.64	-112352
5273.13	-112352
5273.62	-112352
5274.11	-112352
5274.61	-112352
5275.1	-112352
5275.59	-112358
5276.08	-119814
5276.58	-160029
5277.07	-179031
5277.56	-179031
5278.05	-179031
5278.54	-179031
5279.04	-179031
5279.53	-179031
5280.02	-179031
5280.51	-179031
5281	-179031
5281.5	-179031
5281.99	-179031
5282.48	-179031
5282.97	-179031
5283.46	-179031
5283.96	-179031
5284.45	-179031
5284.94	-179031
5285.43	-179031
5285.93	-179031
5286.42	-179031
5286.91	-179031
5287.4	-178965
5287.89	-98348.4
5288.39	-68947.9
5288.88	-66389.6
5289.37	-66389.6
5289.86	-66389.6
5290.35	-66389.6
5290.85	-66389.6
5291.34	-66389.6
5291.83	-66389.6
5292.32	-66389.6
5292.82	-66389.6
5293.31	-66389.6
5293.8	-66389.6
5294.29	-66389.6
5294.78	-66389.6
5295.28	-66389.6
5295.77	-66389.6
5296.26	-66389.6
5296.75	-66389.6
5297.24	-66389.6
5297.74	-66389.6
5298.23	-66389.6
5298.72	-66389.6
5299.21	-63900.6
5299.71	-15922.9
5300.2	46686.9
5300.69	46686.9
5301.18	46686.9
5301.67	46686.9
5302.17	46686.9
5302.66	46686.9
5303.15	46686.9
5303.64	46686.9
5304.13	46686.9
5304.63	46686.9
5305.12	46686.9
5305.61	46686.9
5306.1	46686.9
5306.59	46686.9
5307.09	46686.9
5307.58	46686.9
5308.07	46686.9
5308.56	46686.9
5309.06	46686.9
5309.55	46686.9
5310.04	46686.9
5310.53	46686.9
5311.02	46686.9
5311.52	46063.5
5312.01	27873.8
5312.5	21390.6
5312.99	21390.6
5313.48	21390.6
5313.98	21390.6
5314.47	21390.6
5314.96	21390.6
5315.45	21390.6
5315.95	21390.6
5316.44	21390.6
5316.93	21390.6
5317.42	21390.6
5317.91	21390.6
5318.41	21390.6
5318.9	21390.6
5319.39	21390.6
5319.88	21390.6
5320.37	21390.6
5320.87	21390.6
5321.36	21390.6
5321.85	21390.6
5322.34	21390.6
5322.83	21390.6
5323.33	21390.6
5323.82	-12317.3
5324.31	-34614.1
5324.8	-36969.5
5325.3	-36969.5
5325.79	-36969.5
5326.28	-36969.5
5326.77	-36969.5
5327.26	-36969.5
5327.76	-36969.5
5328.25	-36969.5
5328.74	-36969.5
5329.23	-36969.5
5329.72	-36969.5
5330.22	-36969.5
5330.71	-36969.5
5331.2	-36969.5
5331.69	-36969.5
5332.19	-36969.5
5332.68	-36969.5
5333.17	-36969.5
5333.66	-36969.5
5334.15	-36969.5
5334.65	-36968.4
5335.14	-35654.3
5335.63	-27093.7
5336.12	-12682.8
5336.61	-12682.8
5337.11	-12682.8
5337.6	-12682.8
5338.09	-12682.8
5338.58	-12682.8
5339.08	-12682.8
5339.57	-12682.8
5340.06	-12682.8
5340.55	-12682.8
5341.04	-12682.8
5341.54	-12682.8
5342.03	-12682.8
5342.52	-12682.8
5343.01	-12682.8
5343.5	-12682.8
5344	-12682.8
5344.49	-12682.8
5344.98	-12682.8
5345.47	-12682.8
5345.96	-12682.8
5346.46	-12682.8
5346.95	-12682.8
5347.44	-12682.8
5347.93	9610.17
5348.43	14612.6
5348.92	14922.6
5349.41	14922.6
5349.9	14922.6
5350.39	14922.6
5350.89	14922.6
5351.38	14922.6
5351.87	14922.6
5352.36	14922.6
5352.85	14922.6
5353.35	14922.6
5353.84	14922.6
5354.33	14922.6
5354.82	14922.6
5355.31	14922.6
5355.81	14922.6
5356.3	14922.6
5356.79	14922.6
5357.28	14922.6
5357.78	14922.6
5358.27	14922.6
5358.76	14922.6
5359.25	14898.5
5359.74	-14704.8
5360.24	-45019.5
5360.73	-45343
5361.22	-45343
5361.71	-45343
5362.21	-45343
5362.7	-45343
5363.19	-45343
5363.68	-45343
5364.17	-45343
5364.67	-45343
5365.16	-45343
5365.65	-45343
5366.14	-45343
5366.63	-45343
5367.13	-45343
5367.62	-45343
5368.11	-45343
5368.6	-45343
5369.09	-45343
5369.59	-45343
5370.08	-45343
5370.57	-45344.5
5371.06	-47208.8
5371.56	-64570.8
5372.05	-102133
5372.54	-102133
5373.03	-102133
5373.52	-102133
5374.02	-102133
5374.51	-102133
5375	-102133
5375.49	-102133
5375.98	-102133
5376.48	-102133
5376.97	-102133
5377.46	-102133
5377.95	-102133
5378.45	-102133
5378.94	-102133
5379.43	-102133
5379.92	-102133
5380.41	-102133
5380.91	-102133
5381.4	-102133
5381.89	-102133
5382.38	-102133
5382.87	-102116
5383.37	-81410.8
5383.86	-47743.4
5384.35	-37871.1
5384.84	-37871.1
5385.33	-37871.1
5385.83	-37871.1
5386.32	-37871.1
5386.81	-37871.1
5387.3	-37871.1
5387.8	-37871.1
5388.29	-37871.1
5388.78	-37871.1
5389.27	-37871.1
5389.76	-37871.1
5390.26	-37871.1
5390.75	-37871.1
5391.24	-37871.1
5391.73	-37871.1
5392.22	-37871.1
5392.72	-37871.1
5393.21	-37871.1
5393.7	-37871.1
5394.19	-37871.1
5394.69	-37871.1
5395.18	-10608.4
5395.67	54266.5
5396.16	85803.7
5396.65	85803.7
5397.15	85803.7
5397.64	85803.7
5398.13	85803.7
5398.62	85803.7
5399.11	85803.7
5399.61	85803.7
5400.1	85803.7
5400.59	85803.7
5401.08	85803.7
5401.57	85803.7
5402.07	85803.7
5402.56	85803.7
5403.05	85803.7
5403.54	85803.7
5404.04	85803.7
5404.53	85803.7
5405.02	85803.7
5405.51	85803.7
5406	85803.7
5406.5	85803.7
5406.99	85803.7
5407.48	91778.5
5407.97	132716
5408.46	134411
5408.96	134411
5409.45	134411
5409.94	134411
5410.43	134411
5410.93	134411
5411.42	134411
5411.91	134411
5412.4	134411
5412.89	134411
5413.39	134411
5413.88	134411
5414.37	134411
5414.86	134411
5415.35	134411
5415.85	134411
5416.34	134411
5416.83	134411
5417.32	134411
5417.82	134411
5418.31	134411
5418.8	134411
5419.29	134411
5419.78	124884
5420.28	107104
5420.77	98658.1
5421.26	98658.1
5421.75	98658.1
5422.24	98658.1
5422.74	98658.1
5423.23	98658.1
5423.72	98658.1
5424.21	98658.1
5424.71	98658.1
5425.2	98658.1
5425.69	98658.1
5426.18	98658.1
5426.67	98658.1
5427.17	98658.1
5427.66	98658.1
5428.15	98658.1
5428.64	98658.1
5429.13	98658.1
5429.63	98658.1
5430.12	98658.1
5430.61	98658.1
5431.1	98658.1
5431.59	98658.1
5432.09	90752
5432.58	53339.6
5433.07	49615.5
5433.56	49615.5
5434.06	49615.5
5434.55	49615.5
5435.04	49615.5
5435.53	49615.5
5436.02	49615.5
5436.52	49615.5
5437.01	49615.5
5437.5	49615.5
5437.99	49615.5
5438.48	49615.5
5438.98	49615.5
5439.47	49615.5
5439.96	49615.5
5440.45	49615.5
5440.94	49615.5
5441.44	49615.5
5441.93	49615.5
5442.42	49615.5
5442.91	49615.5
5443.41	49615.5
5443.9	49615.5
5444.39	25798.9
5444.88	5060.78
5445.37	878.454
5445.87	878.454
5446.36	878.454
5446.85	878.454
5447.34	878.454
5447.83	878.454
5448.33	878.454
5448.82	878.454
5449.31	878.454
5449.8	878.454
5450.3	878.454
5450.79	878.454
5451.28	878.454
5451.77	878.454
5452.26	878.454
5452.76	878.454
5453.25	878.454
5453.74	878.454
5454.23	878.454
5454.72	878.454
5455.22	878.454
5455.71	878.454
5456.2	-14372.3
5456.69	-43821.7
5457.19	-55209.3
5457.68	-55209.3
5458.17	-55209.3
5458.66	-55209.3
5459.15	-55209.3
5459.65	-55209.3
5460.14	-55209.3
5460.63	-55209.3
5461.12	-55209.3
5461.61	-55209.3
5462.11	-55209.3
5462.6	-55209.3
5463.09	-55209.3
5463.58	-55209.3
5464.08	-55209.3
5464.57	-55209.3
5465.06	-55209.3
5465.55	-55209.3
5466.04	-55209.3
5466.54	-55209.3
5467.03	-55209.3
5467.52	-55209.6
5468.01	-55533.3
5468.5	-68502.8
5469	-72595.7
5469.49	-72595.7
5469.98	-72595.7
5470.47	-72595.7
5470.96	-72595.7
5471.46	-72595.7
5471.95	-72595.7
5472.44	-72595.7
5472.93	-72595.7
5473.43	-72595.7
5473.92	-72595.7
5474.41	-72595.7
5474.9	-72595.7
5475.39	-72595.7
5475.89	-72595.7
5476.38	-72595.7
5476.87	-72595.7
5477.36	-72595.7
5477.85	-72595.7
5478.35	-72595.7
5478.84	-72595.7
5479.33	-72595.7
5479.82	-72575.6
5480.31	-47899.9
5480.81	-32142
5481.3	-30985.9
5481.79	-30985.9
5482.28	-30985.9
5482.78	-30985.9
5483.27	-30985.9
5483.76	-30985.9
5484.25	-30985.9
5484.74	-30985.9
5485.24	-30985.9
5485.73	-30985.9
5486.22	-30985.9
5486.71	-30985.9
5487.21	-30985.9
5487.7	-30985.9
5488.19	-30985.9
5488.68	-30985.9
5489.17	-30985.9
5489.67	-30985.9
5490.16	-30985.9
5490.65	-30985.9
5491.14	-30982.8
5491.63	-27122.9
5492.13	-9667.08
5492.62	11066.8
5493.11	11066.8
5493.6	11066.8
5494.09	11066.8
5494.59	11066.8
5495.08	11066.8
5495.57	11066.8
5496.06	11066.8
5496.56	11066.8
5497.05	11066.8
5497.54	11066.8
5498.03	11066.8
5498.52	11066.8
5499.02	11066.8
5499.51	11066.8
5500	11066.8
5500.49	11066.8
5500.98	11066.8
5501.48	11066.8
5501.97	11066.8
5502.46	11066.8
5502.95	11066.8
5503.45	11066.8
5503.94	11081.6
5504.43	29299.9
5504.92	33543.8
5505.41	33811
5505.91	33811
5506.4	33811
5506.89	33811
5507.38	33811
5507.87	33811
5508.37	33811
5508.86	33811
5509.35	33811
5509.84	33811
5510.33	33811
5510.83	33811
5511.32	33811
5511.81	33811
5512.3	33811
5512.8	33811
5513.29	33811
5513.78	33811
5514.27	33811
5514.76	33811
5515.26	33811
5515.75	33820.3
5516.24	45277
5516.73	71646.8
5517.22	87672.9
5517.72	87672.9
5518.21	87672.9
5518.7	87672.9
5519.19	87672.9
5519.69	87672.9
5520.18	87672.9
5520.67	87672.9
5521.16	87672.9
5521.65	87672.9
5522.15	87672.9
5522.64	87672.9
5523.13	87672.9
5523.62	87672.9
5524.11	87672.9
5524.61	87672.9
5525.1	87672.9
5525.59	87672.9
5526.08	87672.9
5526.58	87672.9
5527.07	87672.9
5527.56	87672.9
5528.05	88465.2
5528.54	98302.4
5529.04	129856
5529.53	129856
5530.02	129856
5530.51	129856
5531	129856
5531.5	129856
5531.99	129856
5532.48	129856
5532.97	129856
5533.46	129856
5533.96	129856
5534.45	129856
5534.94	129856
5535.43	129856
5535.93	129856
5536.42	129856
5536.91	129856
5537.4	129856
5537.89	129856
5538.39	129856
5538.88	129856
5539.37	129856
5539.86	129856
5540.35	129856
5540.85	129805
5541.34	66889.1
5541.83	34204.7
5542.32	32152.5
5542.82	32152.5
5543.31	32152.5
5543.8	32152.5
5544.29	32152.5
5544.78	32152.5
5545.28	32152.5
5545.77	32152.5
5546.26	32152.5
5546.75	32152.5
5547.24	32152.5
5547.74	32152.5
5548.23	32152.5
5548.72	32152.5
5549.21	32152.5
5549.71	32152.5
5550.2	32152.5
5550.69	32152.5
5551.18	32152.5
5551.67	32152.5
5552.17	32152.5
5552.66	32142.2
5553.15	19444.3
5553.64	-51251.8
5554.13	-153954
5554.63	-153954
5555.12	-153954
5555.61	-153954
5556.1	-153954
5556.59	-153954
5557.09	-153954
5557.58	-153954
5558.07	-153954
5558.56	-153954
5559.06	-153954
5559.55	-153954
5560.04	-153954
5560.53	-153954
5561.02	-153954
5561.52	-153954
5562.01	-153954
5562.5	-153954
5562.99	-153954
5563.48	-153954
5563.98	-153954
5564.47	-153954
5564.96	-153960
5565.45	-161348
5565.95	-191918
5566.44	-195066
5566.93	-195066
5567.42	-195066
5567.91	-195066
5568.41	-195066
5568.9	-195066
5569.39	-195066
5569.88	-195066
5570.37	-195066
5570.87	-195066
5571.36	-195066
5571.85	-195066
5572.34	-195066
5572.83	-195066
5573.33	-195066
5573.82	-195066
5574.31	-195066
5574.8	-195066
5575.3	-195066
5575.79	-195066
5576.28	-195066
5576.77	-195066
5577.26	-178967
5577.76	-107694
5578.25	-54899.3
5578.74	-54899.3
5579.23	-54899.3
5579.72	-54899.3
5580.22	-54899.3
5580.71	-54899.3
5581.2	-54899.3
5581.69	-54899.3
5582.19	-54899.3
5582.68	-54899.3
5583.17	-54899.3
5583.66	-54899.3
5584.15	-54899.3
5584.65	-54899.3
5585.14	-54899.3
5585.63	-54899.3
5586.12	-54899.3
5586.61	-54899.3
5587.11	-54899.3
5587.6	-54899.3
5588.09	-54899.3
5588.58	-54899.3
5589.08	-54899.3
5589.57	-52159.9
5590.06	-28320.5
5590.55	20148.4
5591.04	20148.4
5591.54	20148.4
5592.03	20148.4
5592.52	20148.4
5593.01	20148.4
5593.5	20148.4
5594	20148.4
5594.49	20148.4
5594.98	20148.4
5595.47	20148.4
5595.96	20148.4
5596.46	20148.4
5596.95	20148.4
5597.44	20148.4
5597.93	20148.4
5598.43	20148.4
5598.92	20148.4
5599.41	20148.4
5599.9	20148.4
5600.39	20148.4
5600.89	20148.4
5601.38	20148.4
5601.87	20148.4
5602.36	20098.7
5602.85	-40997.4
5603.35	-72776.6
5603.84	-76194.1
5604.33	-76194.1
5604.82	-76194.1
5605.32	-76194.1
5605.81	-76194.1
5606.3	-76194.1
5606.79	-76194.1
5607.28	-76194.1
5607.78	-76194.1
5608.27	-76194.1
5608.76	-76194.1
5609.25	-76194.1
5609.74	-76194.1
5610.24	-76194.1
5610.73	-76194.1
5611.22	-76194.1
5611.71	-76194.1
5612.21	-76194.1
5612.7	-76194.1
5613.19	-76194.1
5613.68	-76194.1
5614.17	-76194.1
5614.67	-76204.5
5615.16	-88963.2
5615.65	-121953
5616.14	-135680
5616.63	-135680
5617.13	-135680
5617.62	-135680
5618.11	-135680
5618.6	-135680
5619.09	-135680
5619.59	-135680
5620.08	-135680
5620.57	-135680
5621.06	-135680
5621.56	-135680
5622.05	-135680
5622.54	-135680
5623.03	-135680
5623.52	-135680
5624.02	-135680
5624.51	-135680
5625	-135680
5625.49	-135680
5625.98	-135680
5626.48	-135680
5626.97	-135680
5627.46	-135625
5627.95	-68520.2
5628.45	-29648.2
5628.94	-26131.4
5629.43	-26131.4
5629.92	-26131.4
5630.41	-26131.4
5630.91	-26131.4
5631.4	-26131.4
5631.89	-26131.4
5632.38	-26131.4
5632.87	-26131.4
5633.37	-26131.4
5633.86	-26131.4
5634.35	-26131.4
5634.84	-26131.4
5635.33	-26131.4
5635.83	-26131.4
5636.32	-26131.4
5636.81	-26131.4
5637.3	-26131.4
5637.8	-26131.4
5638.29	-26131.4
5638.78	-26131.4
5639.27	-26131.4
5639.76	-26119.1
5640.26	-11071.8
5640.75	49687.8
5641.24	95734.6
5641.73	95734.6
5642.22	95734.6
5642.72	95734.6
5643.21	95734.6
5643.7	95734.6
5644.19	95734.6
5644.69	95734.6
5645.18	95734.6
5645.67	95734.6
5646.16	95734.6
5646.65	95734.6
5647.15	95734.6
5647.64	95734.6
5648.13	95734.6
5648.62	95734.6
5649.11	95734.6
5649.61	95734.6
5650.1	95734.6
5650.59	95734.6
5651.08	95734.6
5651.58	95734.6
5652.07	95734.6
5652.56	95734.6
5653.05	95734.6
5653.54	95988.8
5654.04	98654.4
5654.53	99638.6
5655.02	99638.6
5655.51	99638.6
5656	99638.6
5656.5	99638.6
5656.99	99638.6
5657.48	99638.6
5657.97	99638.6
5658.46	99638.6
5658.96	99638.6
5659.45	99638.6
5659.94	99638.6
5660.43	99638.6
5660.93	99638.6
5661.42	99638.6
5661.91	99638.6
5662.4	99638.6
5662.89	99638.6
5663.39	99638.6
5663.88	99638.6
5664.37	99638.6
5664.86	99638.6
5665.35	99638.6
5665.85	99638.6
5666.34	99631.1
5666.83	90432.6
5667.32	71079.1
5667.81	63276.8
5668.31	63276.8
5668.8	63276.8
5669.29	63276.8
5669.78	63276.8
5670.28	63276.8
5670.77	63276.8
5671.26	63276.8
5671.75	63276.8
5672.24	63276.8
5672.74	63276.8
5673.23	63276.8
5673.72	63276.8
5674.21	63276.8
5674.71	63276.8
5675.2	63276.8
5675.69	63276.8
5676.18	63276.8
5676.67	63276.8
5677.17	63276.8
5677.66	63276.8
5678.15	63276.8
5678.64	63276.8
5679.13	63274.8
5679.63	60873.2
5680.12	52319.5
5680.61	47294.1
5681.1	47294.1
5681.59	47294.1
5682.09	47294.1
5682.58	47294.1
5683.07	47294.1
5683.56	47294.1
5684.06	47294.1
5684.55	47294.1
5685.04	47294.1
5685.53	47294.1
5686.02	47294.1
5686.52	47294.1
5687.01	47294.1
5687.5	47294.1
5687.99	47294.1
5688.48	47294.1
5688.98	47294.1
5689.47	47294.1
5689.96	47294.1
5690.45	47294.1
5690.95	47294.1
5691.44	47294.1
5691.93	47294.1
5692.42	47294.1
5692.91	39570.3
5693.41	32636.2
5693.9	31469.8
5694.39	31469.8
5694.88	31469.8
5695.37	31469.8
5695.87	31469.8
5696.36	31469.8
5696.85	31469.8
5697.34	31469.8
5697.83	31469.8
5698.33	31469.8
5698.82	31469.8
5699.31	31469.8
5699.8	31469.8
5700.3	31469.8
5700.79	31469.8
5701.28	31469.8
5701.77	31469.8
5702.26	31469.8
5702.76	31469.8
5703.25	31469.8
5703.74	31469.8
5704.23	31469.8
5704.72	31469.8
5705.22	31477.7
5705.71	41152.1
5706.2	66833.4
5706.69	85068.6
5707.19	85068.6
5707.68	85068.6
5708.17	85068.6
5708.66	85068.6
5709.15	85068.6
5709.65	85068.6
5710.14	85068.6
5710.63	85068.6
5711.12	85068.6
5711.61	85068.6
5712.11	85068.6
5712.6	85068.6
5713.09	85068.6
5713.58	85068.6
5714.07	85068.6
5714.57	85068.6
5715.06	85068.6
5715.55	85068.6
5716.04	85068.6
5716.54	85068.6
5717.03	85068.6
5717.52	85068.6
5718.01	85069.3
5718.5	85987.4
5719	179237
5719.49	242307
5719.98	242825
5720.47	242825
5720.96	242825
5721.46	242825
5721.95	242825
5722.44	242825
5722.93	242825
5723.43	242825
5723.92	242825
5724.41	242825
5724.9	242825
5725.39	242825
5725.89	242825
5726.38	242825
5726.87	242825
5727.36	242825
5727.85	242825
5728.35	242825
5728.84	242825
5729.33	242825
5729.82	242825
5730.32	242825
5730.81	242825
5731.3	242825
5731.79	258493
5732.28	283228
5732.78	293481
5733.27	293481
5733.76	293481
5734.25	293481
5734.74	293481
5735.24	293481
5735.73	293481
5736.22	293481
5736.71	293481
5737.21	293481
5737.7	293481
5738.19	293481
5738.68	293481
5739.17	293481
5739.67	293481
5740.16	293481
5740.65	293481
5741.14	293481
5741.63	293481
5742.13	293481
5742.62	293481
5743.11	293481
5743.6	293481
5744.09	293481
5744.59	293468
5745.08	277387
5745.57	176320
5746.06	74939.8
5746.56	74939.8
5747.05	74939.8
5747.54	74939.8
5748.03	74939.8
5748.52	74939.8
5749.02	74939.8
5749.51	74939.8
5750	74939.8
5750.49	74939.8
5750.98	74939.8
5751.48	74939.8
5751.97	74939.8
5752.46	74939.8
5752.95	74939.8
5753.44	74939.8
5753.94	74939.8
5754.43	74939.8
5754.92	74939.8
5755.41	74939.8
5755.91	74939.8
5756.4	74939.8
5756.89	74939.8
5757.38	74939.8
5757.87	74782.5
5758.37	-118348
5758.86	-190263
5759.35	-192319
5759.84	-192319
5760.33	-192319
5760.83	-192319
5761.32	-192319
5761.81	-192319
5762.3	-192319
5762.8	-192319
5763.29	-192319
5763.78	-192319
5764.27	-192319
5764.76	-192319
5765.26	-192319
5765.75	-192319
5766.24	-192319
5766.73	-192319
5767.22	-192319
5767.72	-192319
5768.21	-192319
5768.7	-192319
5769.19	-192319
5769.69	-192333
5770.18	-209165
5770.67	-247126
5771.16	-262650
5771.65	-262650
5772.15	-262650
5772.64	-262650
5773.13	-262650
5773.62	-262650
5774.11	-262650
5774.61	-262650
5775.1	-262650
5775.59	-262650
5776.08	-262650
5776.58	-262650
5777.07	-262650
5777.56	-262650
5778.05	-262650
5778.54	-262650
5779.04	-262650
5779.53	-262650
5780.02	-262650
5780.51	-262650
5781	-262650
5781.5	-262650
5781.99	-262657
5782.48	-271419
5782.97	-272939
5783.46	-272992
5783.96	-272992
5784.45	-272992
5784.94	-272992
5785.43	-272992
5785.93	-272992
5786.42	-272992
5786.91	-272992
5787.4	-272992
5787.89	-272992
5788.39	-272992
5788.88	-272992
5789.37	-272992
5789.86	-272992
5790.35	-272992
5790.85	-272992
5791.34	-272992
5791.83	-272992
5792.32	-272992
5792.81	-272992
5793.31	-272992
5793.8	-273031
5794.29	-321192
5794.78	-362329
5795.28	-368205
5795.77	-368205
5796.26	-368205
5796.75	-368205
5797.24	-368205
5797.74	-368205
5798.23	-368205
5798.72	-368205
5799.21	-368205
5799.71	-368205
5800.2	-368205
5800.69	-368205
5801.18	-368205
5801.67	-368205
5802.17	-368205
5802.66	-368205
5803.15	-368205
5803.64	-368205
5804.13	-368205
5804.63	-368205
5805.12	-368205
5805.61	-368205
5806.1	-358255
5806.59	-318402
5807.09	-309266
5807.58	-309266
5808.07	-309266
5808.56	-309266
5809.06	-309266
5809.55	-309266
5810.04	-309266
5810.53	-309266
5811.02	-309266
5811.52	-309266
5812.01	-309266
5812.5	-309266
5812.99	-309266
5813.48	-309266
5813.98	-309266
5814.47	-309266
5814.96	-309266
5815.45	-309266
5815.95	-309266
5816.44	-309266
5816.93	-309266
5817.42	-309266
5817.91	-309266
5818.41	-206586
5818.9	10250.1
5819.39	56342.3
5819.88	56342.3
5820.37	56342.3
5820.87	56342.3
5821.36	56342.3
5821.85	56342.3
5822.34	56342.3
5822.83	56342.3
5823.33	56342.3
5823.82	56342.3
5824.31	56342.3
5824.8	56342.3
5825.3	56342.3
5825.79	56342.3
5826.28	56342.3
5826.77	56342.3
5827.26	56342.3
5827.76	56342.3
5828.25	56342.3
5828.74	56342.3
5829.23	56342.3
5829.72	56342.3
5830.22	56342.3
5830.71	165625
5831.2	333733
5831.69	363242
5832.19	363242
5832.68	363242
5833.17	363242
5833.66	363242
5834.15	363242
5834.65	363242
5835.14	363242
5835.63	363242
5836.12	363242
5836.61	363242
5837.11	363242
5837.6	363242
5838.09	363242
5838.58	363242
5839.08	363242
5839.57	363242
5840.06	363242
5840.55	363242
5841.04	363242
5841.54	363242
5842.03	363242
5842.52	363242
5843.01	363242
5843.5	363242
5844	363242
5844.49	363242
5844.98	363242
5845.47	348710
5845.96	281537
5846.46	277638
5846.95	277638
5847.44	277638
5847.93	277638
5848.43	277638
5848.92	277638
5849.41	277638
5849.9	277638
5850.39	277638
5850.89	277638
5851.38	277638
5851.87	277638
5852.36	277638
5852.85	277638
5853.35	277638
5853.84	277638
5854.33	277638
5854.82	277638
5855.32	277638
5855.81	277638
5856.3	277638
5856.79	277638
5857.28	277638
5857.78	277638
5858.27	277638
5858.76	277564
5859.25	186390
5859.74	72535.4
5860.24	45178.3
5860.73	45178.3
5861.22	45178.3
5861.71	45178.3
5862.21	45178.3
5862.7	45178.3
5863.19	45178.3
5863.68	45178.3
5864.17	45178.3
5864.67	45178.3
5865.16	45178.3
5865.65	45178.3
5866.14	45178.3
5866.63	45178.3
5867.13	45178.3
5867.62	45178.3
5868.11	45178.3
5868.6	45178.3
5869.09	45178.3
5869.59	45178.3
5870.08	45178.3
5870.57	45178.3
5871.06	45178.3
5871.56	45178.3
5872.05	43782.7
5872.54	30001
5873.03	22742.3
5873.52	22742.3
5874.02	22742.3
5874.51	22742.3
5875	22742.3
5875.49	22742.3
5875.98	22742.3
5876.48	22742.3
5876.97	22742.3
5877.46	22742.3
5877.95	22742.3
5878.45	22742.3
5878.94	22742.3
5879.43	22742.3
5879.92	22742.3
5880.41	22742.3
5880.91	22742.3
5881.4	22742.3
5881.89	22742.3
5882.38	22742.3
5882.87	22742.3
5883.37	22742.3
5883.86	22742.3
5884.35	22742.3
5884.84	22742.3
5885.33	22742.3
5885.83	22742.3
5886.32	22742.3
5886.81	71964.1
5887.3	110900
5887.8	117293
5888.29	117293
5888.78	117293
5889.27	117293
5889.76	117293
5890.26	117293
5890.75	117293
5891.24	117293
5891.73	117293
5892.22	117293
5892.72	117293
5893.21	117293
5893.7	117293
5894.19	117293
5894.69	117293
5895.18	117293
5895.67	117293
5896.16	117293
5896.65	117293
5897.15	117293
5897.64	117293
5898.13	117293
5898.62	117293
5899.11	117293
5899.61	117293
5900.1	117292
5900.59	115460
5901.08	106058
5901.58	99382
5902.07	99382
5902.56	99382
5903.05	99382
5903.54	99382
5904.04	99382
5904.53	99382
5905.02	99382
5905.51	99382
5906	99382
5906.5	99382
5906.99	99382
5907.48	99382
5907.97	99382
5908.46	99382
5908.96	99382
5909.45	99382
5909.94	99382
5910.43	99382
5910.93	99382
5911.42	99382
5911.91	99382
5912.4	99382
5912.89	99382
5913.39	99382
5913.88	99382
5914.37	99382
5914.86	99345
5915.35	53832.4
5915.85	13947.4
5916.34	4590.75
5916.83	4590.75
5917.32	4590.75
5917.82	4590.75
5918.31	4590.75
5918.8	4590.75
5919.29	4590.75
5919.78	4590.75
5920.28	4590.75
5920.77	4590.75
5921.26	4590.75
5921.75	4590.75
5922.24	4590.75
5922.74	4590.75
5923.23	4590.75
5923.72	4590.75
5924.21	4590.75
5924.71	4590.75
5925.2	4590.75
5925.69	4590.75
5926.18	4590.75
5926.67	4590.75
5927.17	4590.75
5927.66	4590.75
5928.15	4590.75
5928.64	4590.75
5929.13	4572.57
5929.63	-17804.4
5930.12	-87484.1
5930.61	-102938
5931.1	-102938
5931.59	-102938
5932.09	-102938
5932.58	-102938
5933.07	-102938
5933.56	-102938
5934.06	-102938
5934.55	-102938
5935.04	-102938
5935.53	-102938
5936.02	-102938
5936.52	-102938
5937.01	-102938
5937.5	-102938
5937.99	-102938
5938.48	-102938
5938.98	-102938
5939.47	-102938
5939.96	-102938
5940.45	-102938
5940.95	-102938
5941.44	-102938
5941.93	-102938
5942.42	-102938
5942.91	-102938
5943.41	-102938
5943.9	-103030
5944.39	-216027
5944.88	-267343
5945.37	-273580
5945.87	-273580
5946.36	-273580
5946.85	-273580
5947.34	-273580
5947.83	-273580
5948.33	-273580
5948.82	-273580
5949.31	-273580
5949.8	-273580
5950.3	-273580
5950.79	-273580
5951.28	-273580
5951.77	-273580
5952.26	-273580
5952.76	-273580
5953.25	-273580
5953.74	-273580
5954.23	-273580
5954.73	-273580
5955.22	-273580
5955.71	-273580
5956.2	-273580
5956.69	-273580
5957.19	-273580
5957.68	-273580
5958.17	-277081
5958.66	-307248
5959.15	-355107
5959.65	-355107
5960.14	-355107
5960.63	-355107
5961.12	-355107
5961.61	-355107
5962.11	-355107
5962.6	-355107
5963.09	-355107
5963.58	-355107
5964.08	-355107
5964.57	-355107
5965.06	-355107
5965.55	-355107
5966.04	-355107
5966.54	-355107
5967.03	-355107
5967.52	-355107
5968.01	-355107
5968.5	-355107
5969	-355107
5969.49	-355107
5969.98	-355107
5970.47	-355107
5970.96	-355107
5971.46	-355107
5971.95	-355107
5972.44	-355107
5972.93	-284902
5973.43	-104736
5973.92	-77930.1
5974.41	-77930.1
5974.9	-77930.1
5975.39	-77930.1
5975.89	-77930.1
5976.38	-77930.1
5976.87	-77930.1
5977.36	-77930.1
5977.85	-77930.1
5978.35	-77930.1
5978.84	-77930.1
5979.33	-77930.1
5979.82	-77930.1
5980.31	-77930.1
5980.81	-77930.1
5981.3	-77930.1
5981.79	-77930.1
5982.28	-77930.1
5982.78	-77930.1
5983.27	-77930.1
5983.76	-77930.1
5984.25	-77930.1
5984.74	-77930.1
5985.24	-77930.1
5985.73	-77930.1
5986.22	-77930.1
5986.71	-77816.7
5987.21	61459.9
5987.7	307370
5988.19	382760
5988.68	382760
5989.17	382760
5989.67	382760
5990.16	382760
5990.65	382760
5991.14	382760
5991.63	382760
5992.13	382760
5992.62	382760
5993.11	382760
5993.6	382760
5994.09	382760
5994.59	382760
5995.08	382760
5995.57	382760
5996.06	382760
5996.56	382760
5997.05	382760
5997.54	382760
5998.03	382760
5998.52	382760
5999.02	382760
5999.51	382760
6000	382760
6000.49	382760
6000.98	382760
6001.48	382760
6001.97	382760
6002.46	382760
6002.95	382760
6003.45	382799
6003.94	430388
6004.43	495894
6004.92	504566
6005.41	504566
6005.91	504566
6006.4	504566
6006.89	504566
6007.38	504566
6007.87	504566
6008.37	504566
6008.86	504566
6009.35	504566
6009.84	504566
6010.33	504566
6010.83	504566
6011.32	504566
6011.81	504566
6012.3	504566
6012.8	504566
6013.29	504566
6013.78	504566
6014.27	504566
6014.76	504566
6015.26	504566
6015.75	504566
6016.24	504566
6016.73	504566
6017.22	504566
6017.72	504566
6018.21	504566
6018.7	504566
6019.19	504566
6019.69	504566
6020.18	431330
6020.67	264167
6021.16	192948
6021.65	192948
6022.15	192948
6022.64	192948
6023.13	192948
6023.62	192948
6024.11	192948
6024.61	192948
6025.1	192948
6025.59	192948
6026.08	192948
6026.57	192948
6027.07	192948
6027.56	192948
6028.05	192948
6028.54	192948
6029.04	192948
6029.53	192948
6030.02	192948
6030.51	192948
6031	192948
6031.5	192948
6031.99	192948
6032.48	192948
6032.97	192948
6033.46	192948
6033.96	192948
6034.45	192948
6034.94	192838
6035.43	57292.9
6035.93	-89684.4
6036.42	-109761
6036.91	-109761
6037.4	-109761
6037.89	-109761
6038.39	-109761
6038.88	-109761
6039.37	-109761
6039.86	-109761
6040.35	-109761
6040.85	-109761
6041.34	-109761
6041.83	-109761
6042.32	-109761
6042.82	-109761
6043.31	-109761
6043.8	-109761
6044.29	-109761
6044.78	-109761
6045.28	-109761
6045.77	-109761
6046.26	-109761
6046.75	-109761
6047.24	-109761
6047.74	-109761
6048.23	-109761
6048.72	-109761
6049.21	-109761
6049.71	-109761
6050.2	-109772
6050.69	-122973
6051.18	-146039
6051.67	-149472
6052.17	-149472
6052.66	-149472
6053.15	-149472
6053.64	-149472
6054.13	-149472
6054.63	-149472
6055.12	-149472
6055.61	-149472
6056.1	-149472
6056.59	-149472
6057.09	-149472
6057.58	-149472
6058.07	-149472
6058.56	-149472
6059.06	-149472
6059.55	-149472
6060.04	-149472
6060.53	-149472
6061.02	-149472
6061.52	-149472
6062.01	-149472
6062.5	-149472
6062.99	-149472
6063.48	-149472
6063.98	-149472
6064.47	-149472
6064.96	-149470
6065.45	-146757
6065.94	-124385
6066.44	-122052
6066.93	-122052
6067.42	-122052
6067.91	-122052
6068.41	-122052
6068.9	-122052
6069.39	-122052
6069.88	-122052
6070.37	-122052
6070.87	-122052
6071.36	-122052
6071.85	-122052
6072.34	-122052
6072.83	-122052
6073.33	-122052
6073.82	-122052
6074.31	-122052
6074.8	-122052
6075.3	-122052
6075.79	-122052
6076.28	-122052
6076.77	-122052
6077.26	-122052
6077.76	-122052
6078.25	-122052
6078.74	-122052
6079.23	-122052
6079.72	-122066
6080.22	-139080
6080.71	-164011
6081.2	-168615
6081.69	-168615
6082.19	-168615
6082.68	-168615
6083.17	-168615
6083.66	-168615
6084.15	-168615
6084.65	-168615
6085.14	-168615
6085.63	-168615
6086.12	-168615
6086.61	-168615
6087.11	-168615
6087.6	-168615
6088.09	-168615
6088.58	-168615
6089.08	-168615
6089.57	-168615
6090.06	-168615
6090.55	-168615
6091.04	-168615
6091.54	-168615
6092.03	-168615
6092.52	-168615
6093.01	-168615
6093.5	-168615
6094	-168615
6094.49	-168610
6094.98	-162074
6095.47	-159859
6095.96	-159776
6096.46	-159776
6096.95	-159776
6097.44	-159776
6097.93	-159776
6098.43	-159776
6098.92	-159776
6099.41	-159776
6099.9	-159776
6100.39	-159776
6100.89	-159776
